" File: Users\LabUser\Documents\MonochromatorCal
"  SCOPE->  Wave:693.48nm  Pix:1050  Val:1083.200  Time: 10ms  Avg:1  Sm:1  Sg:0  Tc:off  SNAP  Xt:3  Ch:1  Xtrig  
 191.00  8.3080E+002
 191.50  8.3679E+002
 192.00  8.4798E+002
 192.50  8.2753E+002
 193.00  8.1996E+002
 193.50  8.3571E+002
 194.00  8.3053E+002
 194.50  7.9327E+002
 195.00  7.6589E+002
 195.50  7.6956E+002
 196.00  7.8407E+002
 196.50  7.9829E+002
 197.00  8.1593E+002
 197.50  8.2416E+002
 198.00  8.1743E+002
 198.50  8.1533E+002
 199.00  8.4393E+002
 199.50  8.4300E+002
 200.00  8.2523E+002
 200.50  8.2139E+002
 201.00  8.1375E+002
 201.50  8.2533E+002
 202.00  8.2594E+002
 202.50  8.2779E+002
 203.00  8.3217E+002
 203.50  8.3612E+002
 204.00  8.4238E+002
 204.50  8.5009E+002
 205.00  8.5536E+002
 205.50  8.5720E+002
 206.00  8.5680E+002
 206.50  8.5447E+002
 207.00  8.5136E+002
 207.50  8.4574E+002
 208.00  8.4249E+002
 208.50  8.4322E+002
 209.00  8.4466E+002
 209.50  8.4442E+002
 210.00  8.4207E+002
 210.50  8.3858E+002
 211.00  8.3852E+002
 211.50  8.4028E+002
 212.00  8.4173E+002
 212.50  8.4537E+002
 213.00  8.5097E+002
 213.50  8.5334E+002
 214.00  8.5025E+002
 214.50  8.4785E+002
 215.00  8.4153E+002
 215.50  8.3044E+002
 216.00  8.2234E+002
 216.50  8.1496E+002
 217.00  8.1024E+002
 217.50  8.1410E+002
 218.00  8.2805E+002
 218.50  8.4250E+002
 219.00  8.5214E+002
 219.50  8.5456E+002
 220.00  8.5241E+002
 220.50  8.4861E+002
 221.00  8.4415E+002
 221.50  8.4012E+002
 222.00  8.3646E+002
 222.50  8.3716E+002
 223.00  8.3210E+002
 223.50  8.2320E+002
 224.00  8.1379E+002
 224.50  8.1115E+002
 225.00  8.1100E+002
 225.50  8.1583E+002
 226.00  8.2379E+002
 226.50  8.2897E+002
 227.00  8.3232E+002
 227.50  8.3437E+002
 228.00  8.3301E+002
 228.50  8.2842E+002
 229.00  8.2531E+002
 229.50  8.2505E+002
 230.00  8.2394E+002
 230.50  8.2214E+002
 231.00  8.2337E+002
 231.50  8.2967E+002
 232.00  8.3758E+002
 232.50  8.4244E+002
 233.00  8.4642E+002
 233.50  8.5001E+002
 234.00  8.4841E+002
 234.50  8.4668E+002
 235.00  8.4861E+002
 235.50  8.5274E+002
 236.00  8.5550E+002
 236.50  8.5115E+002
 237.00  8.4288E+002
 237.50  8.3805E+002
 238.00  8.3616E+002
 238.50  8.3559E+002
 239.00  8.4039E+002
 239.50  8.4834E+002
 240.00  8.5021E+002
 240.50  8.4916E+002
 241.00  8.5019E+002
 241.50  8.4383E+002
 242.00  8.3471E+002
 242.50  8.3641E+002
 243.00  8.3698E+002
 243.50  8.2863E+002
 244.00  8.2935E+002
 244.50  8.3672E+002
 245.00  8.3703E+002
 245.50  8.3688E+002
 246.00  8.3898E+002
 246.50  8.3866E+002
 247.00  8.3634E+002
 247.50  8.3592E+002
 248.00  8.3558E+002
 248.50  8.3390E+002
 249.00  8.3452E+002
 249.50  8.3788E+002
 250.00  8.4107E+002
 250.50  8.4425E+002
 251.00  8.4710E+002
 251.50  8.4678E+002
 252.00  8.4835E+002
 252.50  8.5248E+002
 253.00  8.5496E+002
 253.50  8.5462E+002
 254.00  8.5674E+002
 254.50  8.5683E+002
 255.00  8.5009E+002
 255.50  8.3891E+002
 256.00  8.2732E+002
 256.50  8.1983E+002
 257.00  8.1337E+002
 257.50  8.0684E+002
 258.00  8.0578E+002
 258.50  8.1066E+002
 259.00  8.1550E+002
 259.50  8.1985E+002
 260.00  8.2787E+002
 260.50  8.3652E+002
 261.00  8.4078E+002
 261.50  8.4488E+002
 262.00  8.4659E+002
 262.50  8.4202E+002
 263.00  8.3780E+002
 263.50  8.3563E+002
 264.00  8.3640E+002
 264.50  8.4878E+002
 265.00  8.6613E+002
 265.50  8.7959E+002
 266.00  8.9310E+002
 266.50  9.0201E+002
 267.00  8.9759E+002
 267.50  8.8465E+002
 268.00  8.7449E+002
 268.50  8.6963E+002
 269.00  8.6313E+002
 269.50  8.5377E+002
 270.00  8.4674E+002
 270.50  8.4395E+002
 271.00  8.4021E+002
 271.50  8.3530E+002
 272.00  8.3559E+002
 272.50  8.3587E+002
 273.00  8.2957E+002
 273.50  8.1756E+002
 274.00  8.0528E+002
 274.50  7.9884E+002
 275.00  8.0733E+002
 275.50  8.2356E+002
 276.00  8.4138E+002
 276.50  8.5464E+002
 277.00  8.5575E+002
 277.50  8.4413E+002
 278.00  8.2750E+002
 278.50  8.0874E+002
 279.00  8.0316E+002
 279.50  8.0991E+002
 280.00  8.1608E+002
 280.50  8.2364E+002
 281.00  8.3129E+002
 281.50  8.3436E+002
 282.00  8.3415E+002
 282.50  8.3611E+002
 283.00  8.3713E+002
 283.50  8.3248E+002
 284.00  8.2246E+002
 284.50  8.0969E+002
 285.00  7.9993E+002
 285.50  7.9563E+002
 286.00  7.9639E+002
 286.50  8.0270E+002
 287.00  8.1005E+002
 287.50  8.1257E+002
 288.00  8.1243E+002
 288.50  8.1266E+002
 289.00  8.1339E+002
 289.50  8.1638E+002
 290.00  8.2759E+002
 290.50  8.3976E+002
 291.00  8.4915E+002
 291.50  8.5429E+002
 292.00  8.5653E+002
 292.50  8.5580E+002
 293.00  8.5000E+002
 293.50  8.4184E+002
 294.00  8.3598E+002
 294.50  8.3629E+002
 295.00  8.3431E+002
 295.50  8.2993E+002
 296.00  8.2966E+002
 296.50  8.2910E+002
 297.00  8.2287E+002
 297.50  8.1716E+002
 298.00  8.1735E+002
 298.50  8.1864E+002
 299.00  8.1921E+002
 299.50  8.2272E+002
 300.00  8.2955E+002
 300.50  8.3972E+002
 301.00  8.5063E+002
 301.50  8.5990E+002
 302.00  8.6683E+002
 302.50  8.6931E+002
 303.00  8.6762E+002
 303.50  8.6066E+002
 304.00  8.5491E+002
 304.50  8.4956E+002
 305.00  8.4334E+002
 305.50  8.3750E+002
 306.00  8.3973E+002
 306.50  8.4771E+002
 307.00  8.5434E+002
 307.50  8.5890E+002
 308.00  8.5811E+002
 308.50  8.5096E+002
 309.00  8.4113E+002
 309.50  8.3414E+002
 310.00  8.2804E+002
 310.50  8.2061E+002
 311.00  8.1820E+002
 311.50  8.1728E+002
 312.00  8.1282E+002
 312.50  8.1046E+002
 313.00  8.1628E+002
 313.50  8.2010E+002
 314.00  8.1396E+002
 314.50  8.0720E+002
 315.00  8.0737E+002
 315.50  8.0806E+002
 316.00  8.0570E+002
 316.50  8.0867E+002
 317.00  8.1784E+002
 317.50  8.2180E+002
 318.00  8.1971E+002
 318.50  8.2106E+002
 319.00  8.2418E+002
 319.50  8.2373E+002
 320.00  8.2542E+002
 320.50  8.2998E+002
 321.00  8.3070E+002
 321.50  8.3043E+002
 322.00  8.3666E+002
 322.50  8.4165E+002
 323.00  8.4569E+002
 323.50  8.5311E+002
 324.00  8.5602E+002
 324.50  8.5096E+002
 325.00  8.4942E+002
 325.50  8.5134E+002
 326.00  8.5065E+002
 326.50  8.5153E+002
 327.00  8.5474E+002
 327.50  8.5121E+002
 328.00  8.4748E+002
 328.50  8.4356E+002
 329.00  8.4340E+002
 329.50  8.5003E+002
 330.00  8.5908E+002
 330.50  8.6407E+002
 331.00  8.6702E+002
 331.50  8.6859E+002
 332.00  8.6299E+002
 332.50  8.5790E+002
 333.00  8.5509E+002
 333.50  8.5040E+002
 334.00  8.4358E+002
 334.50  8.3512E+002
 335.00  8.2423E+002
 335.50  8.1405E+002
 336.00  8.0968E+002
 336.50  8.0832E+002
 337.00  8.0945E+002
 337.50  8.1510E+002
 338.00  8.1805E+002
 338.50  8.1538E+002
 339.00  8.1432E+002
 339.50  8.1515E+002
 340.00  8.1358E+002
 340.50  8.1220E+002
 341.00  8.1188E+002
 341.50  8.0950E+002
 342.00  8.0760E+002
 342.50  8.1058E+002
 343.00  8.1776E+002
 343.50  8.2483E+002
 344.00  8.2689E+002
 344.50  8.2367E+002
 345.00  8.1850E+002
 345.50  8.1537E+002
 346.00  8.1714E+002
 346.50  8.2050E+002
 347.00  8.2372E+002
 347.50  8.2672E+002
 348.00  8.2517E+002
 348.50  8.1942E+002
 349.00  8.1827E+002
 349.50  8.2224E+002
 350.00  8.2515E+002
 350.50  8.2861E+002
 351.00  8.3443E+002
 351.50  8.3879E+002
 352.00  8.3904E+002
 352.50  8.3658E+002
 353.00  8.3721E+002
 353.50  8.4506E+002
 354.00  8.5563E+002
 354.50  8.6643E+002
 355.00  8.7067E+002
 355.50  8.6644E+002
 356.00  8.5717E+002
 356.50  8.4019E+002
 357.00  8.2293E+002
 357.50  8.1990E+002
 358.00  8.2427E+002
 358.50  8.2554E+002
 359.00  8.3335E+002
 359.50  8.5131E+002
 360.00  8.6628E+002
 360.50  8.7346E+002
 361.00  8.7522E+002
 361.50  8.7408E+002
 362.00  8.6251E+002
 362.50  8.4974E+002
 363.00  8.4355E+002
 363.50  8.3874E+002
 364.00  8.3177E+002
 364.50  8.2665E+002
 365.00  8.1997E+002
 365.50  8.1470E+002
 366.00  8.1405E+002
 366.50  8.2413E+002
 367.00  8.4202E+002
 367.50  8.5892E+002
 368.00  8.6807E+002
 368.50  8.6918E+002
 369.00  8.6455E+002
 369.50  8.5890E+002
 370.00  8.5646E+002
 370.50  8.5266E+002
 371.00  8.4871E+002
 371.50  8.4590E+002
 372.00  8.4261E+002
 372.50  8.3589E+002
 373.00  8.3164E+002
 373.50  8.3338E+002
 374.00  8.3224E+002
 374.50  8.2497E+002
 375.00  8.2369E+002
 375.50  8.2819E+002
 376.00  8.2778E+002
 376.50  8.2650E+002
 377.00  8.2104E+002
 377.50  8.1164E+002
 378.00  8.0242E+002
 378.50  8.0372E+002
 379.00  8.1051E+002
 379.50  8.1643E+002
 380.00  8.2786E+002
 380.50  8.4000E+002
 381.00  8.3989E+002
 381.50  8.3550E+002
 382.00  8.3939E+002
 382.50  8.3905E+002
 383.00  8.3408E+002
 383.50  8.3659E+002
 384.00  8.4212E+002
 384.50  8.4529E+002
 385.00  8.4761E+002
 385.50  8.5263E+002
 386.00  8.6168E+002
 386.50  8.6743E+002
 387.00  8.7568E+002
 387.50  8.8718E+002
 388.00  8.9279E+002
 388.50  8.8892E+002
 389.00  8.7572E+002
 389.50  8.5327E+002
 390.00  8.3027E+002
 390.50  8.2009E+002
 391.00  8.1752E+002
 391.50  8.2330E+002
 392.00  8.3205E+002
 392.50  8.3941E+002
 393.00  8.4282E+002
 393.50  8.4427E+002
 394.00  8.4337E+002
 394.50  8.4354E+002
 395.00  8.4503E+002
 395.50  8.4199E+002
 396.00  8.4402E+002
 396.50  8.4899E+002
 397.00  8.4594E+002
 397.50  8.3464E+002
 398.00  8.2348E+002
 398.50  8.0997E+002
 399.00  8.0051E+002
 399.50  8.0231E+002
 400.00  8.1175E+002
 400.50  8.1827E+002
 401.00  8.1422E+002
 401.50  8.0604E+002
 402.00  7.9958E+002
 402.50  7.8845E+002
 403.00  7.8276E+002
 403.50  7.8716E+002
 404.00  7.9433E+002
 404.50  8.0008E+002
 405.00  8.0850E+002
 405.50  8.1312E+002
 406.00  8.0978E+002
 406.50  8.0256E+002
 407.00  7.9872E+002
 407.50  8.0043E+002
 408.00  8.0756E+002
 408.50  8.1745E+002
 409.00  8.2380E+002
 409.50  8.2722E+002
 410.00  8.3134E+002
 410.50  8.3705E+002
 411.00  8.4592E+002
 411.50  8.5434E+002
 412.00  8.5647E+002
 412.50  8.5012E+002
 413.00  8.3672E+002
 413.50  8.2256E+002
 414.00  8.1572E+002
 414.50  8.2005E+002
 415.00  8.3156E+002
 415.50  8.4150E+002
 416.00  8.4929E+002
 416.50  8.5425E+002
 417.00  8.4877E+002
 417.50  8.3769E+002
 418.00  8.3207E+002
 418.50  8.3018E+002
 419.00  8.2697E+002
 419.50  8.2722E+002
 420.00  8.3119E+002
 420.50  8.3444E+002
 421.00  8.3712E+002
 421.50  8.3593E+002
 422.00  8.3355E+002
 422.50  8.3460E+002
 423.00  8.3444E+002
 423.50  8.3513E+002
 424.00  8.4339E+002
 424.50  8.4837E+002
 425.00  8.4413E+002
 425.50  8.3567E+002
 426.00  8.2284E+002
 426.50  8.0860E+002
 427.00  8.0253E+002
 427.50  8.0132E+002
 428.00  8.0391E+002
 428.50  8.1585E+002
 429.00  8.2655E+002
 429.50  8.2423E+002
 430.00  8.1951E+002
 430.50  8.1300E+002
 431.00  7.9602E+002
 431.50  7.8310E+002
 432.00  7.8373E+002
 432.50  7.8715E+002
 433.00  7.9241E+002
 433.50  8.0485E+002
 434.00  8.1875E+002
 434.50  8.2178E+002
 435.00  8.2062E+002
 435.50  8.2191E+002
 436.00  8.1889E+002
 436.50  8.1097E+002
 437.00  8.0833E+002
 437.50  8.0714E+002
 438.00  8.0200E+002
 438.50  8.0248E+002
 439.00  8.0881E+002
 439.50  8.1076E+002
 440.00  8.1053E+002
 440.50  8.1130E+002
 441.00  8.0565E+002
 441.50  7.9708E+002
 442.00  7.9157E+002
 442.50  7.9448E+002
 443.00  8.0526E+002
 443.50  8.1704E+002
 444.00  8.2556E+002
 444.50  8.2879E+002
 445.00  8.2520E+002
 445.50  8.2344E+002
 446.00  8.2563E+002
 446.50  8.3040E+002
 447.00  8.3555E+002
 447.50  8.3422E+002
 448.00  8.2802E+002
 448.50  8.2185E+002
 449.00  8.1892E+002
 449.50  8.2719E+002
 450.00  8.4064E+002
 450.50  8.4300E+002
 451.00  8.3878E+002
 451.50  8.3761E+002
 452.00  8.3545E+002
 452.50  8.2941E+002
 453.00  8.2741E+002
 453.50  8.2603E+002
 454.00  8.1916E+002
 454.50  8.1373E+002
 455.00  8.1257E+002
 455.50  8.1228E+002
 456.00  8.1220E+002
 456.50  8.0938E+002
 457.00  8.0588E+002
 457.50  8.0633E+002
 458.00  8.0912E+002
 458.50  8.1514E+002
 459.00  8.1927E+002
 459.50  8.1540E+002
 460.00  8.0657E+002
 460.50  8.0428E+002
 461.00  8.1051E+002
 461.50  8.1687E+002
 462.00  8.1999E+002
 462.50  8.2266E+002
 463.00  8.1779E+002
 463.50  8.0537E+002
 464.00  7.9632E+002
 464.50  7.9663E+002
 465.00  7.9832E+002
 465.50  7.9747E+002
 466.00  8.0013E+002
 466.50  8.0904E+002
 467.00  8.1434E+002
 467.50  8.1391E+002
 468.00  8.1606E+002
 468.50  8.2107E+002
 469.00  8.2482E+002
 469.50  8.2833E+002
 470.00  8.3289E+002
 470.50  8.3497E+002
 471.00  8.3460E+002
 471.50  8.3614E+002
 472.00  8.3977E+002
 472.50  8.3918E+002
 473.00  8.3698E+002
 473.50  8.3316E+002
 474.00  8.2300E+002
 474.50  8.1524E+002
 475.00  8.2179E+002
 475.50  8.3391E+002
 476.00  8.4537E+002
 476.50  8.6082E+002
 477.00  8.7796E+002
 477.50  8.8606E+002
 478.00  8.8206E+002
 478.50  8.7410E+002
 479.00  8.7006E+002
 479.50  8.6765E+002
 480.00  8.6346E+002
 480.50  8.6206E+002
 481.00  8.5851E+002
 481.50  8.4802E+002
 482.00  8.3954E+002
 482.50  8.3452E+002
 483.00  8.2786E+002
 483.50  8.1718E+002
 484.00  8.0921E+002
 484.50  7.9946E+002
 485.00  7.8921E+002
 485.50  7.8686E+002
 486.00  7.8928E+002
 486.50  7.9304E+002
 487.00  7.9510E+002
 487.50  7.9721E+002
 488.00  8.0083E+002
 488.50  8.0424E+002
 489.00  8.0430E+002
 489.50  8.0997E+002
 490.00  8.1581E+002
 490.50  8.1894E+002
 491.00  8.2214E+002
 491.50  8.1966E+002
 492.00  8.1370E+002
 492.50  8.1578E+002
 493.00  8.2273E+002
 493.50  8.3090E+002
 494.00  8.4103E+002
 494.50  8.4642E+002
 495.00  8.3888E+002
 495.50  8.2702E+002
 496.00  8.1715E+002
 496.50  8.1417E+002
 497.00  8.1852E+002
 497.50  8.2865E+002
 498.00  8.3678E+002
 498.50  8.4140E+002
 499.00  8.4700E+002
 499.50  8.5062E+002
 500.00  8.4951E+002
 500.50  8.5036E+002
 501.00  8.5289E+002
 501.50  8.5083E+002
 502.00  8.4526E+002
 502.50  8.4052E+002
 503.00  8.3713E+002
 503.50  8.3114E+002
 504.00  8.2759E+002
 504.50  8.3435E+002
 505.00  8.3804E+002
 505.50  8.3517E+002
 506.00  8.3689E+002
 506.50  8.3739E+002
 507.00  8.3302E+002
 507.50  8.3321E+002
 508.00  8.4027E+002
 508.50  8.4611E+002
 509.00  8.4962E+002
 509.50  8.5554E+002
 510.00  8.6063E+002
 510.50  8.5735E+002
 511.00  8.5138E+002
 511.50  8.4807E+002
 512.00  8.4449E+002
 512.50  8.3550E+002
 513.00  8.3264E+002
 513.50  8.3414E+002
 514.00  8.3175E+002
 514.50  8.2237E+002
 515.00  8.2111E+002
 515.50  8.2576E+002
 516.00  8.3121E+002
 516.50  8.3370E+002
 517.00  8.3148E+002
 517.50  8.2647E+002
 518.00  8.1676E+002
 518.50  8.0875E+002
 519.00  8.1281E+002
 519.50  8.1847E+002
 520.00  8.2025E+002
 520.50  8.2425E+002
 521.00  8.2695E+002
 521.50  8.2347E+002
 522.00  8.1581E+002
 522.50  8.0852E+002
 523.00  8.0368E+002
 523.50  8.0164E+002
 524.00  8.0495E+002
 524.50  8.1275E+002
 525.00  8.1700E+002
 525.50  8.1595E+002
 526.00  8.1564E+002
 526.50  8.1867E+002
 527.00  8.2565E+002
 527.50  8.4315E+002
 528.00  8.7082E+002
 528.50  8.8605E+002
 529.00  8.9202E+002
 529.50  8.9639E+002
 530.00  8.8620E+002
 530.50  8.6757E+002
 531.00  8.6361E+002
 531.50  8.7125E+002
 532.00  8.7908E+002
 532.50  8.8867E+002
 533.00  9.0320E+002
 533.50  9.0907E+002
 534.00  8.9805E+002
 534.50  8.8436E+002
 535.00  8.7515E+002
 535.50  8.6528E+002
 536.00  8.6396E+002
 536.50  8.7243E+002
 537.00  8.8179E+002
 537.50  8.8846E+002
 538.00  8.9085E+002
 538.50  8.9194E+002
 539.00  8.9180E+002
 539.50  8.8573E+002
 540.00  8.7417E+002
 540.50  8.5952E+002
 541.00  8.4039E+002
 541.50  8.2141E+002
 542.00  8.0886E+002
 542.50  8.0507E+002
 543.00  8.0733E+002
 543.50  8.1005E+002
 544.00  8.1152E+002
 544.50  8.0957E+002
 545.00  8.0860E+002
 545.50  8.1543E+002
 546.00  8.2585E+002
 546.50  8.3664E+002
 547.00  8.4589E+002
 547.50  8.4584E+002
 548.00  8.3620E+002
 548.50  8.3045E+002
 549.00  8.2398E+002
 549.50  8.1527E+002
 550.00  8.0895E+002
 550.50  8.1091E+002
 551.00  8.1566E+002
 551.50  8.1975E+002
 552.00  8.2354E+002
 552.50  8.2588E+002
 553.00  8.2209E+002
 553.50  8.1788E+002
 554.00  8.2390E+002
 554.50  8.2854E+002
 555.00  8.2547E+002
 555.50  8.2383E+002
 556.00  8.2566E+002
 556.50  8.1788E+002
 557.00  8.1822E+002
 557.50  8.2979E+002
 558.00  8.3758E+002
 558.50  8.3789E+002
 559.00  8.3319E+002
 559.50  8.2704E+002
 560.00  8.2263E+002
 560.50  8.1609E+002
 561.00  8.1389E+002
 561.50  8.2022E+002
 562.00  8.2268E+002
 562.50  8.2013E+002
 563.00  8.2534E+002
 563.50  8.3398E+002
 564.00  8.3449E+002
 564.50  8.3447E+002
 565.00  8.3697E+002
 565.50  8.3677E+002
 566.00  8.4468E+002
 566.50  8.6038E+002
 567.00  8.7120E+002
 567.50  8.7918E+002
 568.00  8.7706E+002
 568.50  8.6256E+002
 569.00  8.4804E+002
 569.50  8.3626E+002
 570.00  8.3071E+002
 570.50  8.3285E+002
 571.00  8.3640E+002
 571.50  8.3977E+002
 572.00  8.3959E+002
 572.50  8.3323E+002
 573.00  8.2245E+002
 573.50  8.0769E+002
 574.00  7.9297E+002
 574.50  7.8570E+002
 575.00  7.8750E+002
 575.50  7.9730E+002
 576.00  8.1430E+002
 576.50  8.3329E+002
 577.00  8.4747E+002
 577.50  8.5805E+002
 578.00  8.6167E+002
 578.50  8.5720E+002
 579.00  8.5173E+002
 579.50  8.4493E+002
 580.00  8.3628E+002
 580.50  8.3668E+002
 581.00  8.3963E+002
 581.50  8.4829E+002
 582.00  8.6452E+002
 582.50  8.7180E+002
 583.00  8.7222E+002
 583.50  8.6665E+002
 584.00  8.5340E+002
 584.50  8.4065E+002
 585.00  8.3972E+002
 585.50  8.4074E+002
 586.00  8.4693E+002
 586.50  8.5358E+002
 587.00  8.5902E+002
 587.50  8.6691E+002
 588.00  8.6949E+002
 588.50  8.6476E+002
 589.00  8.6107E+002
 589.50  8.4878E+002
 590.00  8.3791E+002
 590.50  8.3688E+002
 591.00  8.4092E+002
 591.50  8.4675E+002
 592.00  8.5047E+002
 592.50  8.4828E+002
 593.00  8.3905E+002
 593.50  8.2634E+002
 594.00  8.1832E+002
 594.50  8.1526E+002
 595.00  8.1979E+002
 595.50  8.2912E+002
 596.00  8.3807E+002
 596.50  8.4173E+002
 597.00  8.3519E+002
 597.50  8.2256E+002
 598.00  8.0940E+002
 598.50  8.0463E+002
 599.00  8.1967E+002
 599.50  8.3669E+002
 600.00  8.5017E+002
 600.50  8.5085E+002
 601.00  8.3713E+002
 601.50  8.2501E+002
 602.00  8.2260E+002
 602.50  8.2836E+002
 603.00  8.4352E+002
 603.50  8.5774E+002
 604.00  8.6270E+002
 604.50  8.6010E+002
 605.00  8.5758E+002
 605.50  8.5977E+002
 606.00  8.6080E+002
 606.50  8.6210E+002
 607.00  8.6444E+002
 607.50  8.5998E+002
 608.00  8.5104E+002
 608.50  8.4621E+002
 609.00  8.4121E+002
 609.50  8.3337E+002
 610.00  8.2445E+002
 610.50  8.1915E+002
 611.00  8.1660E+002
 611.50  8.2022E+002
 612.00  8.3247E+002
 612.50  8.4336E+002
 613.00  8.4825E+002
 613.50  8.5247E+002
 614.00  8.5223E+002
 614.50  8.5184E+002
 615.00  8.5900E+002
 615.50  8.6449E+002
 616.00  8.6606E+002
 616.50  8.6526E+002
 617.00  8.5399E+002
 617.50  8.3939E+002
 618.00  8.3297E+002
 618.50  8.3301E+002
 619.00  8.3789E+002
 619.50  8.4172E+002
 620.00  8.4110E+002
 620.50  8.3800E+002
 621.00  8.3248E+002
 621.50  8.3736E+002
 622.00  8.5106E+002
 622.50  8.5666E+002
 623.00  8.5309E+002
 623.50  8.4146E+002
 624.00  8.2129E+002
 624.50  8.0641E+002
 625.00  8.0124E+002
 625.50  8.0780E+002
 626.00  8.2041E+002
 626.50  8.2465E+002
 627.00  8.2362E+002
 627.50  8.2692E+002
 628.00  8.2750E+002
 628.50  8.2433E+002
 629.00  8.2378E+002
 629.50  8.2449E+002
 630.00  8.1695E+002
 630.50  8.1633E+002
 631.00  8.1877E+002
 631.50  8.1577E+002
 632.00  8.1270E+002
 632.50  8.0954E+002
 633.00  8.0930E+002
 633.50  8.1839E+002
 634.00  8.2412E+002
 634.50  8.2674E+002
 635.00  8.3678E+002
 635.50  8.4779E+002
 636.00  8.5404E+002
 636.50  8.6230E+002
 637.00  8.6703E+002
 637.50  8.6060E+002
 638.00  8.5863E+002
 638.50  8.5773E+002
 639.00  8.5414E+002
 639.50  8.5360E+002
 640.00  8.4908E+002
 640.50  8.4088E+002
 641.00  8.4314E+002
