" File: Users\LabUser\Documents\MonochromatorCal
"  SCOPE->  Wave:693.48nm  Pix:1050  Val:837.000  Time: 10ms  Avg:1  Sm:1  Sg:0  Tc:off  SNAP  Xt:3  Ch:1  Xtrig  
 191.00  8.3341E+002
 191.50  8.4867E+002
 192.00  8.4401E+002
 192.50  8.3935E+002
 193.00  8.5281E+002
 193.50  8.8046E+002
 194.00  8.8700E+002
 194.50  8.6452E+002
 195.00  8.4646E+002
 195.50  8.4992E+002
 196.00  8.5885E+002
 196.50  8.6297E+002
 197.00  8.6830E+002
 197.50  8.7773E+002
 198.00  8.8667E+002
 198.50  8.6546E+002
 199.00  8.4338E+002
 199.50  8.6300E+002
 200.00  8.7048E+002
 200.50  8.4316E+002
 201.00  8.4061E+002
 201.50  8.6025E+002
 202.00  8.6443E+002
 202.50  8.7396E+002
 203.00  8.8397E+002
 203.50  8.8525E+002
 204.00  8.8204E+002
 204.50  8.7369E+002
 205.00  8.5698E+002
 205.50  8.3979E+002
 206.00  8.2984E+002
 206.50  8.2328E+002
 207.00  8.1674E+002
 207.50  8.1055E+002
 208.00  8.0235E+002
 208.50  7.9955E+002
 209.00  8.0505E+002
 209.50  8.1505E+002
 210.00  8.2899E+002
 210.50  8.4214E+002
 211.00  8.4753E+002
 211.50  8.4539E+002
 212.00  8.4120E+002
 212.50  8.3555E+002
 213.00  8.2629E+002
 213.50  8.1743E+002
 214.00  8.1244E+002
 214.50  8.1281E+002
 215.00  8.1491E+002
 215.50  8.2337E+002
 216.00  8.3746E+002
 216.50  8.5104E+002
 217.00  8.5983E+002
 217.50  8.6428E+002
 218.00  8.6520E+002
 218.50  8.6174E+002
 219.00  8.5852E+002
 219.50  8.5383E+002
 220.00  8.4399E+002
 220.50  8.3554E+002
 221.00  8.3470E+002
 221.50  8.3443E+002
 222.00  8.3097E+002
 222.50  8.3391E+002
 223.00  8.4209E+002
 223.50  8.4285E+002
 224.00  8.4362E+002
 224.50  8.5155E+002
 225.00  8.5716E+002
 225.50  8.5747E+002
 226.00  8.5569E+002
 226.50  8.5189E+002
 227.00  8.4569E+002
 227.50  8.3882E+002
 228.00  8.3346E+002
 228.50  8.3001E+002
 229.00  8.2842E+002
 229.50  8.2774E+002
 230.00  8.2627E+002
 230.50  8.2530E+002
 231.00  8.2642E+002
 231.50  8.2453E+002
 232.00  8.1728E+002
 232.50  8.0995E+002
 233.00  8.0921E+002
 233.50  8.1167E+002
 234.00  8.1736E+002
 234.50  8.2879E+002
 235.00  8.4186E+002
 235.50  8.4893E+002
 236.00  8.5218E+002
 236.50  8.5376E+002
 237.00  8.5362E+002
 237.50  8.5141E+002
 238.00  8.4876E+002
 238.50  8.4811E+002
 239.00  8.4902E+002
 239.50  8.4641E+002
 240.00  8.3787E+002
 240.50  8.2990E+002
 241.00  8.1978E+002
 241.50  8.0623E+002
 242.00  7.9688E+002
 242.50  7.9498E+002
 243.00  7.9327E+002
 243.50  7.9284E+002
 244.00  7.9589E+002
 244.50  7.9543E+002
 245.00  7.9672E+002
 245.50  8.0387E+002
 246.00  8.1783E+002
 246.50  8.2788E+002
 247.00  8.3386E+002
 247.50  8.4245E+002
 248.00  8.5210E+002
 248.50  8.5618E+002
 249.00  8.5626E+002
 249.50  8.5702E+002
 250.00  8.5360E+002
 250.50  8.4486E+002
 251.00  8.3897E+002
 251.50  8.4016E+002
 252.00  8.4316E+002
 252.50  8.4972E+002
 253.00  8.5315E+002
 253.50  8.4963E+002
 254.00  8.4833E+002
 254.50  8.5074E+002
 255.00  8.5200E+002
 255.50  8.5205E+002
 256.00  8.5327E+002
 256.50  8.4878E+002
 257.00  8.3820E+002
 257.50  8.2727E+002
 258.00  8.2039E+002
 258.50  8.1887E+002
 259.00  8.2264E+002
 259.50  8.3206E+002
 260.00  8.4495E+002
 260.50  8.5567E+002
 261.00  8.5965E+002
 261.50  8.5090E+002
 262.00  8.3362E+002
 262.50  8.1435E+002
 263.00  8.0218E+002
 263.50  7.9540E+002
 264.00  8.0037E+002
 264.50  8.1811E+002
 265.00  8.3355E+002
 265.50  8.3968E+002
 266.00  8.4221E+002
 266.50  8.4088E+002
 267.00  8.3552E+002
 267.50  8.3017E+002
 268.00  8.2873E+002
 268.50  8.3089E+002
 269.00  8.3346E+002
 269.50  8.3419E+002
 270.00  8.3508E+002
 270.50  8.3476E+002
 271.00  8.2989E+002
 271.50  8.2400E+002
 272.00  8.2114E+002
 272.50  8.1812E+002
 273.00  8.1335E+002
 273.50  8.1565E+002
 274.00  8.2108E+002
 274.50  8.2432E+002
 275.00  8.2407E+002
 275.50  8.2650E+002
 276.00  8.2087E+002
 276.50  8.1106E+002
 277.00  8.0781E+002
 277.50  8.0886E+002
 278.00  8.1055E+002
 278.50  8.1277E+002
 279.00  8.1790E+002
 279.50  8.2532E+002
 280.00  8.2967E+002
 280.50  8.2979E+002
 281.00  8.3029E+002
 281.50  8.3116E+002
 282.00  8.2714E+002
 282.50  8.1877E+002
 283.00  8.0952E+002
 283.50  8.0144E+002
 284.00  7.9777E+002
 284.50  7.9899E+002
 285.00  8.0349E+002
 285.50  8.1419E+002
 286.00  8.2963E+002
 286.50  8.4104E+002
 287.00  8.4622E+002
 287.50  8.5256E+002
 288.00  8.6055E+002
 288.50  8.6348E+002
 289.00  8.6997E+002
 289.50  8.7517E+002
 290.00  8.7420E+002
 290.50  8.6532E+002
 291.00  8.5661E+002
 291.50  8.4881E+002
 292.00  8.4679E+002
 292.50  8.5126E+002
 293.00  8.6084E+002
 293.50  8.7237E+002
 294.00  8.7755E+002
 294.50  8.7277E+002
 295.00  8.6194E+002
 295.50  8.4821E+002
 296.00  8.3210E+002
 296.50  8.2047E+002
 297.00  8.1624E+002
 297.50  8.1354E+002
 298.00  8.1044E+002
 298.50  8.1301E+002
 299.00  8.1980E+002
 299.50  8.2092E+002
 300.00  8.1691E+002
 300.50  8.1666E+002
 301.00  8.1867E+002
 301.50  8.1434E+002
 302.00  8.1095E+002
 302.50  8.1050E+002
 303.00  8.0884E+002
 303.50  8.0675E+002
 304.00  8.0870E+002
 304.50  8.0950E+002
 305.00  8.1052E+002
 305.50  8.1225E+002
 306.00  8.1765E+002
 306.50  8.2037E+002
 307.00  8.1982E+002
 307.50  8.2391E+002
 308.00  8.2529E+002
 308.50  8.1801E+002
 309.00  8.1529E+002
 309.50  8.1979E+002
 310.00  8.2480E+002
 310.50  8.2983E+002
 311.00  8.3205E+002
 311.50  8.2648E+002
 312.00  8.1695E+002
 312.50  8.0708E+002
 313.00  8.0083E+002
 313.50  8.0231E+002
 314.00  8.0993E+002
 314.50  8.1952E+002
 315.00  8.2851E+002
 315.50  8.3533E+002
 316.00  8.3680E+002
 316.50  8.3180E+002
 317.00  8.2381E+002
 317.50  8.2006E+002
 318.00  8.2436E+002
 318.50  8.3076E+002
 319.00  8.3446E+002
 319.50  8.3882E+002
 320.00  8.4622E+002
 320.50  8.4874E+002
 321.00  8.4342E+002
 321.50  8.3835E+002
 322.00  8.3665E+002
 322.50  8.3299E+002
 323.00  8.3125E+002
 323.50  8.3012E+002
 324.00  8.2774E+002
 324.50  8.2924E+002
 325.00  8.3402E+002
 325.50  8.3454E+002
 326.00  8.3920E+002
 326.50  8.4917E+002
 327.00  8.5360E+002
 327.50  8.5380E+002
 328.00  8.4910E+002
 328.50  8.4401E+002
 329.00  8.3929E+002
 329.50  8.3679E+002
 330.00  8.3425E+002
 330.50  8.3471E+002
 331.00  8.3116E+002
 331.50  8.2738E+002
 332.00  8.3062E+002
 332.50  8.3319E+002
 333.00  8.3328E+002
 333.50  8.4097E+002
 334.00  8.4548E+002
 334.50  8.3907E+002
 335.00  8.3312E+002
 335.50  8.3052E+002
 336.00  8.2141E+002
 336.50  8.1503E+002
 337.00  8.1644E+002
 337.50  8.1522E+002
 338.00  8.1342E+002
 338.50  8.2020E+002
 339.00  8.2999E+002
 339.50  8.3605E+002
 340.00  8.4030E+002
 340.50  8.4142E+002
 341.00  8.3789E+002
 341.50  8.3424E+002
 342.00  8.3617E+002
 342.50  8.4228E+002
 343.00  8.4782E+002
 343.50  8.5246E+002
 344.00  8.5518E+002
 344.50  8.5256E+002
 345.00  8.4555E+002
 345.50  8.3966E+002
 346.00  8.3683E+002
 346.50  8.3532E+002
 347.00  8.3627E+002
 347.50  8.4059E+002
 348.00  8.4507E+002
 348.50  8.4375E+002
 349.00  8.4000E+002
 349.50  8.3735E+002
 350.00  8.3581E+002
 350.50  8.3727E+002
 351.00  8.4463E+002
 351.50  8.5369E+002
 352.00  8.5767E+002
 352.50  8.5607E+002
 353.00  8.5214E+002
 353.50  8.4592E+002
 354.00  8.4459E+002
 354.50  8.4778E+002
 355.00  8.4959E+002
 355.50  8.4859E+002
 356.00  8.4662E+002
 356.50  8.4075E+002
 357.00  8.3472E+002
 357.50  8.2731E+002
 358.00  8.2380E+002
 358.50  8.2133E+002
 359.00  8.1179E+002
 359.50  8.0269E+002
 360.00  8.0388E+002
 360.50  8.0838E+002
 361.00  8.0999E+002
 361.50  8.1294E+002
 362.00  8.1382E+002
 362.50  8.1244E+002
 363.00  8.1337E+002
 363.50  8.1930E+002
 364.00  8.2651E+002
 364.50  8.2969E+002
 365.00  8.2783E+002
 365.50  8.2071E+002
 366.00  8.1703E+002
 366.50  8.1781E+002
 367.00  8.2491E+002
 367.50  8.4051E+002
 368.00  8.5658E+002
 368.50  8.6389E+002
 369.00  8.6982E+002
 369.50  8.6996E+002
 370.00  8.6391E+002
 370.50  8.5654E+002
 371.00  8.5475E+002
 371.50  8.5337E+002
 372.00  8.5231E+002
 372.50  8.4895E+002
 373.00  8.3939E+002
 373.50  8.3070E+002
 374.00  8.2628E+002
 374.50  8.2985E+002
 375.00  8.3256E+002
 375.50  8.4078E+002
 376.00  8.5063E+002
 376.50  8.5196E+002
 377.00  8.4979E+002
 377.50  8.4891E+002
 378.00  8.4370E+002
 378.50  8.3817E+002
 379.00  8.3670E+002
 379.50  8.3160E+002
 380.00  8.3183E+002
 380.50  8.3330E+002
 381.00  8.3808E+002
 381.50  8.4965E+002
 382.00  8.5924E+002
 382.50  8.6106E+002
 383.00  8.6970E+002
 383.50  8.7228E+002
 384.00  8.6291E+002
 384.50  8.5526E+002
 385.00  8.5177E+002
 385.50  8.4644E+002
 386.00  8.4345E+002
 386.50  8.4828E+002
 387.00  8.4948E+002
 387.50  8.4733E+002
 388.00  8.4278E+002
 388.50  8.3664E+002
 389.00  8.3489E+002
 389.50  8.3884E+002
 390.00  8.4373E+002
 390.50  8.4269E+002
 391.00  8.3855E+002
 391.50  8.2714E+002
 392.00  8.1117E+002
 392.50  7.9901E+002
 393.00  7.9639E+002
 393.50  7.9933E+002
 394.00  8.0131E+002
 394.50  8.1024E+002
 395.00  8.2241E+002
 395.50  8.2751E+002
 396.00  8.2341E+002
 396.50  8.2185E+002
 397.00  8.2432E+002
 397.50  8.2682E+002
 398.00  8.3282E+002
 398.50  8.3973E+002
 399.00  8.4010E+002
 399.50  8.3595E+002
 400.00  8.3155E+002
 400.50  8.2539E+002
 401.00  8.2247E+002
 401.50  8.2969E+002
 402.00  8.3813E+002
 402.50  8.3962E+002
 403.00  8.4343E+002
 403.50  8.4789E+002
 404.00  8.4188E+002
 404.50  8.3255E+002
 405.00  8.3019E+002
 405.50  8.2655E+002
 406.00  8.2164E+002
 406.50  8.2369E+002
 407.00  8.2828E+002
 407.50  8.2744E+002
 408.00  8.2575E+002
 408.50  8.2489E+002
 409.00  8.2070E+002
 409.50  8.1557E+002
 410.00  8.1508E+002
 410.50  8.1444E+002
 411.00  8.1310E+002
 411.50  8.1158E+002
 412.00  8.0946E+002
 412.50  8.1181E+002
 413.00  8.1999E+002
 413.50  8.3254E+002
 414.00  8.4716E+002
 414.50  8.5487E+002
 415.00  8.5221E+002
 415.50  8.4566E+002
 416.00  8.3946E+002
 416.50  8.3766E+002
 417.00  8.3956E+002
 417.50  8.4179E+002
 418.00  8.4354E+002
 418.50  8.4065E+002
 419.00  8.3493E+002
 419.50  8.3447E+002
 420.00  8.3527E+002
 420.50  8.3556E+002
 421.00  8.3658E+002
 421.50  8.3379E+002
 422.00  8.2295E+002
 422.50  8.1072E+002
 423.00  7.9885E+002
 423.50  7.8885E+002
 424.00  7.8763E+002
 424.50  7.9293E+002
 425.00  8.0038E+002
 425.50  8.0754E+002
 426.00  8.1526E+002
 426.50  8.2044E+002
 427.00  8.2179E+002
 427.50  8.2593E+002
 428.00  8.3584E+002
 428.50  8.4473E+002
 429.00  8.5299E+002
 429.50  8.6091E+002
 430.00  8.6221E+002
 430.50  8.5305E+002
 431.00  8.3896E+002
 431.50  8.2875E+002
 432.00  8.2429E+002
 432.50  8.2204E+002
 433.00  8.2075E+002
 433.50  8.1801E+002
 434.00  8.1328E+002
 434.50  8.1265E+002
 435.00  8.1853E+002
 435.50  8.2673E+002
 436.00  8.3343E+002
 436.50  8.3522E+002
 437.00  8.3213E+002
 437.50  8.2989E+002
 438.00  8.3241E+002
 438.50  8.4199E+002
 439.00  8.5747E+002
 439.50  8.6909E+002
 440.00  8.7227E+002
 440.50  8.6737E+002
 441.00  8.5664E+002
 441.50  8.4783E+002
 442.00  8.4350E+002
 442.50  8.4070E+002
 443.00  8.3987E+002
 443.50  8.3721E+002
 444.00  8.3288E+002
 444.50  8.3258E+002
 445.00  8.3450E+002
 445.50  8.3656E+002
 446.00  8.3596E+002
 446.50  8.2999E+002
 447.00  8.1822E+002
 447.50  8.0371E+002
 448.00  7.9758E+002
 448.50  7.9970E+002
 449.00  7.9805E+002
 449.50  8.0521E+002
 450.00  8.1505E+002
 450.50  8.1467E+002
 451.00  8.1356E+002
 451.50  8.2134E+002
 452.00  8.1758E+002
 452.50  8.1044E+002
 453.00  8.1185E+002
 453.50  8.0641E+002
 454.00  7.9487E+002
 454.50  7.9304E+002
 455.00  7.9560E+002
 455.50  8.0006E+002
 456.00  8.0948E+002
 456.50  8.1541E+002
 457.00  8.1626E+002
 457.50  8.1694E+002
 458.00  8.1348E+002
 458.50  8.0512E+002
 459.00  8.0323E+002
 459.50  8.0830E+002
 460.00  8.1248E+002
 460.50  8.2592E+002
 461.00  8.4830E+002
 461.50  8.6367E+002
 462.00  8.6704E+002
 462.50  8.7082E+002
 463.00  8.6997E+002
 463.50  8.6100E+002
 464.00  8.5032E+002
 464.50  8.5256E+002
 465.00  8.5839E+002
 465.50  8.5972E+002
 466.00  8.6298E+002
 466.50  8.6815E+002
 467.00  8.6500E+002
 467.50  8.5497E+002
 468.00  8.4437E+002
 468.50  8.3796E+002
 469.00  8.3633E+002
 469.50  8.3322E+002
 470.00  8.2824E+002
 470.50  8.2788E+002
 471.00  8.2449E+002
 471.50  8.1638E+002
 472.00  8.1177E+002
 472.50  8.1015E+002
 473.00  8.0927E+002
 473.50  8.1092E+002
 474.00  8.1980E+002
 474.50  8.3053E+002
 475.00  8.3865E+002
 475.50  8.4400E+002
 476.00  8.4622E+002
 476.50  8.4179E+002
 477.00  8.3437E+002
 477.50  8.2841E+002
 478.00  8.2030E+002
 478.50  8.0979E+002
 479.00  8.0543E+002
 479.50  8.0486E+002
 480.00  8.0028E+002
 480.50  7.9528E+002
 481.00  7.9331E+002
 481.50  7.8960E+002
 482.00  7.8822E+002
 482.50  7.9840E+002
 483.00  8.2144E+002
 483.50  8.4286E+002
 484.00  8.5697E+002
 484.50  8.6976E+002
 485.00  8.7608E+002
 485.50  8.6448E+002
 486.00  8.5182E+002
 486.50  8.4606E+002
 487.00  8.3708E+002
 487.50  8.2682E+002
 488.00  8.2908E+002
 488.50  8.3433E+002
 489.00  8.3905E+002
 489.50  8.4777E+002
 490.00  8.5718E+002
 490.50  8.6132E+002
 491.00  8.6598E+002
 491.50  8.6917E+002
 492.00  8.6795E+002
 492.50  8.6549E+002
 493.00  8.6389E+002
 493.50  8.6587E+002
 494.00  8.7020E+002
 494.50  8.6952E+002
 495.00  8.6882E+002
 495.50  8.6812E+002
 496.00  8.6298E+002
 496.50  8.5448E+002
 497.00  8.5234E+002
 497.50  8.5305E+002
 498.00  8.5342E+002
 498.50  8.5661E+002
 499.00  8.6335E+002
 499.50  8.6342E+002
 500.00  8.5574E+002
 500.50  8.4253E+002
 501.00  8.2762E+002
 501.50  8.1620E+002
 502.00  8.0843E+002
 502.50  8.0260E+002
 503.00  8.0107E+002
 503.50  7.9942E+002
 504.00  7.9845E+002
 504.50  8.0078E+002
 505.00  8.0471E+002
 505.50  8.0688E+002
 506.00  8.0818E+002
 506.50  8.1296E+002
 507.00  8.2341E+002
 507.50  8.3868E+002
 508.00  8.5120E+002
 508.50  8.5812E+002
 509.00  8.5452E+002
 509.50  8.4056E+002
 510.00  8.2105E+002
 510.50  8.0530E+002
 511.00  7.9961E+002
 511.50  8.0463E+002
 512.00  8.1602E+002
 512.50  8.2628E+002
 513.00  8.2995E+002
 513.50  8.2944E+002
 514.00  8.2011E+002
 514.50  8.0617E+002
 515.00  8.0041E+002
 515.50  8.0509E+002
 516.00  8.1839E+002
 516.50  8.3386E+002
 517.00  8.4619E+002
 517.50  8.5210E+002
 518.00  8.4932E+002
 518.50  8.4302E+002
 519.00  8.4164E+002
 519.50  8.4575E+002
 520.00  8.5277E+002
 520.50  8.6004E+002
 521.00  8.6492E+002
 521.50  8.6750E+002
 522.00  8.6443E+002
 522.50  8.5548E+002
 523.00  8.4813E+002
 523.50  8.4038E+002
 524.00  8.4146E+002
 524.50  8.5482E+002
 525.00  8.6964E+002
 525.50  8.8175E+002
 526.00  8.8691E+002
 526.50  8.7946E+002
 527.00  8.6511E+002
 527.50  8.4538E+002
 528.00  8.3097E+002
 528.50  8.2669E+002
 529.00  8.2211E+002
 529.50  8.1575E+002
 530.00  8.1988E+002
 530.50  8.2679E+002
 531.00  8.3176E+002
 531.50  8.3854E+002
 532.00  8.4333E+002
 532.50  8.4368E+002
 533.00  8.4118E+002
 533.50  8.3874E+002
 534.00  8.4188E+002
 534.50  8.4965E+002
 535.00  8.5524E+002
 535.50  8.5561E+002
 536.00  8.4979E+002
 536.50  8.3855E+002
 537.00  8.2170E+002
 537.50  8.0601E+002
 538.00  7.9972E+002
 538.50  8.0207E+002
 539.00  8.0905E+002
 539.50  8.1806E+002
 540.00  8.2919E+002
 540.50  8.3718E+002
 541.00  8.3790E+002
 541.50  8.3595E+002
 542.00  8.3254E+002
 542.50  8.2733E+002
 543.00  8.3012E+002
 543.50  8.4097E+002
 544.00  8.4832E+002
 544.50  8.4902E+002
 545.00  8.4223E+002
 545.50  8.3185E+002
 546.00  8.2529E+002
 546.50  8.3296E+002
 547.00  8.5226E+002
 547.50  8.7202E+002
 548.00  8.8393E+002
 548.50  8.8149E+002
 549.00  8.6838E+002
 549.50  8.5354E+002
 550.00  8.4406E+002
 550.50  8.4077E+002
 551.00  8.4283E+002
 551.50  8.4484E+002
 552.00  8.4622E+002
 552.50  8.4847E+002
 553.00  8.4919E+002
 553.50  8.4318E+002
 554.00  8.3600E+002
 554.50  8.2663E+002
 555.00  8.1721E+002
 555.50  8.1609E+002
 556.00  8.2572E+002
 556.50  8.3094E+002
 557.00  8.3196E+002
 557.50  8.3320E+002
 558.00  8.3099E+002
 558.50  8.2407E+002
 559.00  8.1763E+002
 559.50  8.0936E+002
 560.00  8.0262E+002
 560.50  8.0526E+002
 561.00  8.1468E+002
 561.50  8.3297E+002
 562.00  8.5374E+002
 562.50  8.5779E+002
 563.00  8.5062E+002
 563.50  8.4341E+002
 564.00  8.3324E+002
 564.50  8.2419E+002
 565.00  8.2071E+002
 565.50  8.1264E+002
 566.00  8.0330E+002
 566.50  7.9934E+002
 567.00  7.9824E+002
 567.50  8.0868E+002
 568.00  8.2339E+002
 568.50  8.2156E+002
 569.00  8.2099E+002
 569.50  8.2137E+002
 570.00  8.1558E+002
 570.50  8.2046E+002
 571.00  8.3651E+002
 571.50  8.4341E+002
 572.00  8.4113E+002
 572.50  8.4509E+002
 573.00  8.4616E+002
 573.50  8.3735E+002
 574.00  8.3900E+002
 574.50  8.4834E+002
 575.00  8.5224E+002
 575.50  8.5355E+002
 576.00  8.5681E+002
 576.50  8.5626E+002
 577.00  8.4931E+002
 577.50  8.4603E+002
 578.00  8.4675E+002
 578.50  8.4567E+002
 579.00  8.4268E+002
 579.50  8.4329E+002
 580.00  8.4257E+002
 580.50  8.4015E+002
 581.00  8.4257E+002
 581.50  8.4897E+002
 582.00  8.4606E+002
 582.50  8.4013E+002
 583.00  8.3866E+002
 583.50  8.3385E+002
 584.00  8.3137E+002
 584.50  8.3744E+002
 585.00  8.3653E+002
 585.50  8.3539E+002
 586.00  8.3743E+002
 586.50  8.3313E+002
 587.00  8.2489E+002
 587.50  8.1943E+002
 588.00  8.1443E+002
 588.50  8.0684E+002
 589.00  8.0995E+002
 589.50  8.2053E+002
 590.00  8.1907E+002
 590.50  8.1152E+002
 591.00  8.0385E+002
 591.50  7.9047E+002
 592.00  7.8040E+002
 592.50  7.7840E+002
 593.00  7.8431E+002
 593.50  7.9647E+002
 594.00  8.1237E+002
 594.50  8.2965E+002
 595.00  8.4314E+002
 595.50  8.5048E+002
 596.00  8.5604E+002
 596.50  8.5366E+002
 597.00  8.4660E+002
 597.50  8.4067E+002
 598.00  8.2829E+002
 598.50  8.1679E+002
 599.00  8.1099E+002
 599.50  8.0091E+002
 600.00  7.9612E+002
 600.50  8.0312E+002
 601.00  8.1179E+002
 601.50  8.1678E+002
 602.00  8.2165E+002
 602.50  8.2334E+002
 603.00  8.2092E+002
 603.50  8.2433E+002
 604.00  8.3691E+002
 604.50  8.4572E+002
 605.00  8.5403E+002
 605.50  8.6035E+002
 606.00  8.6800E+002
 606.50  8.7631E+002
 607.00  8.7529E+002
 607.50  8.7015E+002
 608.00  8.6561E+002
 608.50  8.6127E+002
 609.00  8.6549E+002
 609.50  8.6995E+002
 610.00  8.6733E+002
 610.50  8.5701E+002
 611.00  8.4121E+002
 611.50  8.2864E+002
 612.00  8.2994E+002
 612.50  8.3683E+002
 613.00  8.4389E+002
 613.50  8.5057E+002
 614.00  8.5440E+002
 614.50  8.4921E+002
 615.00  8.3903E+002
 615.50  8.2949E+002
 616.00  8.2057E+002
 616.50  8.1505E+002
 617.00  8.2146E+002
 617.50  8.2549E+002
 618.00  8.2308E+002
 618.50  8.1742E+002
 619.00  8.0566E+002
 619.50  7.9699E+002
 620.00  7.9545E+002
 620.50  7.9453E+002
 621.00  7.9735E+002
 621.50  8.0387E+002
 622.00  8.1300E+002
 622.50  8.2871E+002
 623.00  8.3884E+002
 623.50  8.4103E+002
 624.00  8.3995E+002
 624.50  8.2902E+002
 625.00  8.1358E+002
 625.50  8.1021E+002
 626.00  8.1955E+002
 626.50  8.2811E+002
 627.00  8.3935E+002
 627.50  8.5823E+002
 628.00  8.7194E+002
 628.50  8.7650E+002
 629.00  8.8129E+002
 629.50  8.8056E+002
 630.00  8.7800E+002
 630.50  8.7769E+002
 631.00  8.7588E+002
 631.50  8.7410E+002
 632.00  8.6878E+002
 632.50  8.5934E+002
 633.00  8.5808E+002
 633.50  8.6599E+002
 634.00  8.7257E+002
 634.50  8.7909E+002
 635.00  8.8039E+002
 635.50  8.7122E+002
 636.00  8.6128E+002
 636.50  8.5775E+002
 637.00  8.5110E+002
 637.50  8.4318E+002
 638.00  8.3275E+002
 638.50  8.1817E+002
 639.00  8.0437E+002
 639.50  7.9534E+002
 640.00  7.9081E+002
 640.50  7.9041E+002
 641.00  7.8809E+002
