" File: Users\LabUser\Documents\MonochromatorCal
"  SCOPE->  Wave:693.48nm  Pix:1050  Val:955.400  Time:1000ms  Avg:1  Sm:1  Sg:0  Tc:off  SNAP  Xt:3  Ch:1  Xtrig  
 191.00  9.4472E+002
 191.50  9.1654E+002
 192.00  9.1001E+002
 192.50  8.9791E+002
 193.00  9.2116E+002
 193.50  9.2898E+002
 194.00  9.0597E+002
 194.50  8.8245E+002
 195.00  8.7976E+002
 195.50  8.7878E+002
 196.00  8.8054E+002
 196.50  9.2096E+002
 197.00  9.8188E+002
 197.50  9.8765E+002
 198.00  9.3942E+002
 198.50  8.8033E+002
 199.00  8.5856E+002
 199.50  8.9501E+002
 200.00  9.1931E+002
 200.50  9.2970E+002
 201.00  9.4630E+002
 201.50  9.5815E+002
 202.00  9.4653E+002
 202.50  9.4070E+002
 203.00  9.4009E+002
 203.50  9.4016E+002
 204.00  9.3964E+002
 204.50  9.3314E+002
 205.00  9.2340E+002
 205.50  9.1623E+002
 206.00  9.1203E+002
 206.50  9.1517E+002
 207.00  9.2388E+002
 207.50  9.3044E+002
 208.00  9.3773E+002
 208.50  9.3908E+002
 209.00  9.3667E+002
 209.50  9.3338E+002
 210.00  9.3133E+002
 210.50  9.3189E+002
 211.00  9.3966E+002
 211.50  9.4936E+002
 212.00  9.5214E+002
 212.50  9.4824E+002
 213.00  9.4183E+002
 213.50  9.3114E+002
 214.00  9.1492E+002
 214.50  9.1045E+002
 215.00  9.2205E+002
 215.50  9.3277E+002
 216.00  9.3899E+002
 216.50  9.4870E+002
 217.00  9.5573E+002
 217.50  9.5563E+002
 218.00  9.4890E+002
 218.50  9.3518E+002
 219.00  9.1946E+002
 219.50  9.0371E+002
 220.00  8.9030E+002
 220.50  8.8355E+002
 221.00  8.8385E+002
 221.50  8.8765E+002
 222.00  8.9246E+002
 222.50  8.9615E+002
 223.00  8.9367E+002
 223.50  8.9154E+002
 224.00  8.9682E+002
 224.50  9.0361E+002
 225.00  9.0845E+002
 225.50  9.0983E+002
 226.00  9.0363E+002
 226.50  8.9330E+002
 227.00  8.8602E+002
 227.50  8.8351E+002
 228.00  8.8696E+002
 228.50  8.9705E+002
 229.00  9.1029E+002
 229.50  9.2055E+002
 230.00  9.2414E+002
 230.50  9.2265E+002
 231.00  9.2054E+002
 231.50  9.1757E+002
 232.00  9.1458E+002
 232.50  9.1631E+002
 233.00  9.2140E+002
 233.50  9.2159E+002
 234.00  9.2555E+002
 234.50  9.3342E+002
 235.00  9.3433E+002
 235.50  9.3184E+002
 236.00  9.3332E+002
 236.50  9.4134E+002
 237.00  9.5269E+002
 237.50  9.6526E+002
 238.00  9.7653E+002
 238.50  9.8298E+002
 239.00  9.8083E+002
 239.50  9.7122E+002
 240.00  9.6605E+002
 240.50  9.7378E+002
 241.00  9.8694E+002
 241.50  9.9493E+002
 242.00  9.9563E+002
 242.50  9.8985E+002
 243.00  9.7598E+002
 243.50  9.5848E+002
 244.00  9.4236E+002
 244.50  9.3158E+002
 245.00  9.2474E+002
 245.50  9.1894E+002
 246.00  9.1046E+002
 246.50  9.0639E+002
 247.00  9.0825E+002
 247.50  9.0908E+002
 248.00  9.0644E+002
 248.50  9.0664E+002
 249.00  9.1112E+002
 249.50  9.1149E+002
 250.00  9.0529E+002
 250.50  8.9795E+002
 251.00  8.9115E+002
 251.50  8.8544E+002
 252.00  8.8036E+002
 252.50  8.8243E+002
 253.00  8.8930E+002
 253.50  8.9484E+002
 254.00  8.9591E+002
 254.50  8.9685E+002
 255.00  8.9892E+002
 255.50  9.0407E+002
 256.00  9.0984E+002
 256.50  9.1596E+002
 257.00  9.1894E+002
 257.50  9.1655E+002
 258.00  9.1283E+002
 258.50  9.0987E+002
 259.00  9.0481E+002
 259.50  8.9853E+002
 260.00  8.9463E+002
 260.50  8.9208E+002
 261.00  8.8912E+002
 261.50  8.8527E+002
 262.00  8.8713E+002
 262.50  9.0110E+002
 263.00  9.1951E+002
 263.50  9.3000E+002
 264.00  9.3497E+002
 264.50  9.3291E+002
 265.00  9.2062E+002
 265.50  9.0605E+002
 266.00  9.0186E+002
 266.50  9.0797E+002
 267.00  9.1468E+002
 267.50  9.1835E+002
 268.00  9.2025E+002
 268.50  9.1687E+002
 269.00  9.1050E+002
 269.50  9.0664E+002
 270.00  9.0501E+002
 270.50  9.0690E+002
 271.00  9.1217E+002
 271.50  9.1832E+002
 272.00  9.2900E+002
 272.50  9.4243E+002
 273.00  9.4960E+002
 273.50  9.4595E+002
 274.00  9.3839E+002
 274.50  9.2195E+002
 275.00  9.0306E+002
 275.50  8.9138E+002
 276.00  8.8748E+002
 276.50  8.9325E+002
 277.00  9.0631E+002
 277.50  9.1384E+002
 278.00  9.1769E+002
 278.50  9.2165E+002
 279.00  9.1958E+002
 279.50  9.0686E+002
 280.00  8.9359E+002
 280.50  8.8765E+002
 281.00  8.8622E+002
 281.50  8.8672E+002
 282.00  8.8821E+002
 282.50  8.9078E+002
 283.00  8.9640E+002
 283.50  9.0205E+002
 284.00  9.0081E+002
 284.50  8.9592E+002
 285.00  8.9473E+002
 285.50  8.9002E+002
 286.00  8.7651E+002
 286.50  8.7033E+002
 287.00  8.8228E+002
 287.50  8.9953E+002
 288.00  9.1167E+002
 288.50  9.2314E+002
 289.00  9.2988E+002
 289.50  9.3125E+002
 290.00  9.3879E+002
 290.50  9.5405E+002
 291.00  9.6783E+002
 291.50  9.7419E+002
 292.00  9.6684E+002
 292.50  9.4795E+002
 293.00  9.2488E+002
 293.50  9.0925E+002
 294.00  9.0762E+002
 294.50  9.1622E+002
 295.00  9.2698E+002
 295.50  9.3930E+002
 296.00  9.4931E+002
 296.50  9.5341E+002
 297.00  9.5313E+002
 297.50  9.5127E+002
 298.00  9.4797E+002
 298.50  9.4152E+002
 299.00  9.3136E+002
 299.50  9.2255E+002
 300.00  9.2029E+002
 300.50  9.2133E+002
 301.00  9.2537E+002
 301.50  9.3854E+002
 302.00  9.5808E+002
 302.50  9.6597E+002
 303.00  9.6395E+002
 303.50  9.6219E+002
 304.00  9.6305E+002
 304.50  9.6178E+002
 305.00  9.6000E+002
 305.50  9.6285E+002
 306.00  9.6817E+002
 306.50  9.6622E+002
 307.00  9.6120E+002
 307.50  9.5895E+002
 308.00  9.5499E+002
 308.50  9.4914E+002
 309.00  9.3646E+002
 309.50  9.2746E+002
 310.00  9.2376E+002
 310.50  9.2150E+002
 311.00  9.1965E+002
 311.50  9.2180E+002
 312.00  9.2280E+002
 312.50  9.2079E+002
 313.00  9.1980E+002
 313.50  9.2005E+002
 314.00  9.2068E+002
 314.50  9.1940E+002
 315.00  9.1765E+002
 315.50  9.1929E+002
 316.00  9.2190E+002
 316.50  9.1794E+002
 317.00  9.0865E+002
 317.50  8.9966E+002
 318.00  8.8825E+002
 318.50  8.7660E+002
 319.00  8.7685E+002
 319.50  8.9078E+002
 320.00  9.1088E+002
 320.50  9.3674E+002
 321.00  9.5807E+002
 321.50  9.6332E+002
 322.00  9.5466E+002
 322.50  9.3527E+002
 323.00  9.1192E+002
 323.50  8.9733E+002
 324.00  8.9909E+002
 324.50  9.0680E+002
 325.00  9.1497E+002
 325.50  9.2280E+002
 326.00  9.3227E+002
 326.50  9.3313E+002
 327.00  9.2615E+002
 327.50  9.2321E+002
 328.00  9.2085E+002
 328.50  9.1313E+002
 329.00  9.0528E+002
 329.50  9.0554E+002
 330.00  9.0614E+002
 330.50  9.0337E+002
 331.00  8.9832E+002
 331.50  8.9692E+002
 332.00  9.0261E+002
 332.50  9.1387E+002
 333.00  9.2367E+002
 333.50  9.2995E+002
 334.00  9.3394E+002
 334.50  9.3064E+002
 335.00  9.2209E+002
 335.50  9.2110E+002
 336.00  9.2734E+002
 336.50  9.2980E+002
 337.00  9.2888E+002
 337.50  9.2569E+002
 338.00  9.1237E+002
 338.50  8.9312E+002
 339.00  8.7989E+002
 339.50  8.7667E+002
 340.00  8.8166E+002
 340.50  8.9429E+002
 341.00  9.0861E+002
 341.50  9.1576E+002
 342.00  9.1670E+002
 342.50  9.1630E+002
 343.00  9.2945E+002
 343.50  9.5988E+002
 344.00  9.8312E+002
 344.50  9.9169E+002
 345.00  9.9394E+002
 345.50  9.7574E+002
 346.00  9.3431E+002
 346.50  9.0179E+002
 347.00  8.8619E+002
 347.50  8.7430E+002
 348.00  8.6786E+002
 348.50  8.6608E+002
 349.00  8.7055E+002
 349.50  8.8054E+002
 350.00  8.8575E+002
 350.50  8.9241E+002
 351.00  9.0872E+002
 351.50  9.2121E+002
 352.00  9.2445E+002
 352.50  9.2745E+002
 353.00  9.3110E+002
 353.50  9.3121E+002
 354.00  9.3227E+002
 354.50  9.4097E+002
 355.00  9.5423E+002
 355.50  9.6302E+002
 356.00  9.6493E+002
 356.50  9.6085E+002
 357.00  9.4832E+002
 357.50  9.3023E+002
 358.00  9.1474E+002
 358.50  9.1453E+002
 359.00  9.2090E+002
 359.50  9.2365E+002
 360.00  9.3187E+002
 360.50  9.4398E+002
 361.00  9.4537E+002
 361.50  9.4752E+002
 362.00  9.5506E+002
 362.50  9.5928E+002
 363.00  9.6373E+002
 363.50  9.6584E+002
 364.00  9.5562E+002
 364.50  9.4683E+002
 365.00  9.3936E+002
 365.50  9.2602E+002
 366.00  9.1615E+002
 366.50  9.1854E+002
 367.00  9.2419E+002
 367.50  9.3406E+002
 368.00  9.4204E+002
 368.50  9.4272E+002
 369.00  9.4124E+002
 369.50  9.4222E+002
 370.00  9.4287E+002
 370.50  9.4467E+002
 371.00  9.4654E+002
 371.50  9.4417E+002
 372.00  9.2965E+002
 372.50  9.1029E+002
 373.00  8.9855E+002
 373.50  8.8828E+002
 374.00  8.7445E+002
 374.50  8.6750E+002
 375.00  8.7236E+002
 375.50  8.8057E+002
 376.00  8.8977E+002
 376.50  8.9943E+002
 377.00  9.1251E+002
 377.50  9.1866E+002
 378.00  9.2225E+002
 378.50  9.2543E+002
 379.00  9.3801E+002
 379.50  9.4897E+002
 380.00  9.5758E+002
 380.50  9.6622E+002
 381.00  9.8508E+002
 381.50  9.9663E+002
 382.00  9.9755E+002
 382.50  9.9547E+002
 383.00  9.9100E+002
 383.50  9.8476E+002
 384.00  9.8376E+002
 384.50  9.8788E+002
 385.00  9.8462E+002
 385.50  9.7554E+002
 386.00  9.6098E+002
 386.50  9.4101E+002
 387.00  9.3104E+002
 387.50  9.3912E+002
 388.00  9.5291E+002
 388.50  9.5154E+002
 389.00  9.5131E+002
 389.50  9.5781E+002
 390.00  9.5970E+002
 390.50  9.5447E+002
 391.00  9.5528E+002
 391.50  9.5489E+002
 392.00  9.4418E+002
 392.50  9.3598E+002
 393.00  9.3840E+002
 393.50  9.4583E+002
 394.00  9.4700E+002
 394.50  9.4335E+002
 395.00  9.3476E+002
 395.50  9.1921E+002
 396.00  9.0180E+002
 396.50  8.8808E+002
 397.00  8.7900E+002
 397.50  8.6986E+002
 398.00  8.6750E+002
 398.50  8.7881E+002
 399.00  8.9992E+002
 399.50  9.1863E+002
 400.00  9.3330E+002
 400.50  9.4035E+002
 401.00  9.4368E+002
 401.50  9.5598E+002
 402.00  9.6791E+002
 402.50  9.7032E+002
 403.00  9.6290E+002
 403.50  9.4167E+002
 404.00  9.0984E+002
 404.50  8.8640E+002
 405.00  8.8062E+002
 405.50  8.8947E+002
 406.00  9.0384E+002
 406.50  9.1135E+002
 407.00  9.1167E+002
 407.50  9.1108E+002
 408.00  9.1298E+002
 408.50  9.1057E+002
 409.00  9.0594E+002
 409.50  9.0876E+002
 410.00  9.1176E+002
 410.50  9.1118E+002
 411.00  9.1711E+002
 411.50  9.2624E+002
 412.00  9.3106E+002
 412.50  9.3326E+002
 413.00  9.3081E+002
 413.50  9.2447E+002
 414.00  9.1858E+002
 414.50  9.1771E+002
 415.00  9.2472E+002
 415.50  9.3513E+002
 416.00  9.4737E+002
 416.50  9.5675E+002
 417.00  9.5582E+002
 417.50  9.4685E+002
 418.00  9.3649E+002
 418.50  9.2792E+002
 419.00  9.2446E+002
 419.50  9.2400E+002
 420.00  9.2447E+002
 420.50  9.2572E+002
 421.00  9.2878E+002
 421.50  9.3943E+002
 422.00  9.5097E+002
 422.50  9.5627E+002
 423.00  9.6019E+002
 423.50  9.5896E+002
 424.00  9.5116E+002
 424.50  9.4794E+002
 425.00  9.5071E+002
 425.50  9.5358E+002
 426.00  9.5590E+002
 426.50  9.4682E+002
 427.00  9.2857E+002
 427.50  9.1306E+002
 428.00  9.0329E+002
 428.50  8.9854E+002
 429.00  9.0126E+002
 429.50  9.1340E+002
 430.00  9.2382E+002
 430.50  9.2783E+002
 431.00  9.2328E+002
 431.50  9.1064E+002
 432.00  8.9399E+002
 432.50  8.8802E+002
 433.00  8.9124E+002
 433.50  9.0081E+002
 434.00  9.1360E+002
 434.50  9.1792E+002
 435.00  9.0959E+002
 435.50  8.9742E+002
 436.00  8.8741E+002
 436.50  8.8329E+002
 437.00  8.9039E+002
 437.50  9.0246E+002
 438.00  9.1259E+002
 438.50  9.1865E+002
 439.00  9.1513E+002
 439.50  9.0568E+002
 440.00  8.9978E+002
 440.50  8.9441E+002
 441.00  8.9797E+002
 441.50  9.1746E+002
 442.00  9.3583E+002
 442.50  9.4974E+002
 443.00  9.6089E+002
 443.50  9.6191E+002
 444.00  9.6037E+002
 444.50  9.6186E+002
 445.00  9.5896E+002
 445.50  9.5821E+002
 446.00  9.6055E+002
 446.50  9.5384E+002
 447.00  9.4349E+002
 447.50  9.3254E+002
 448.00  9.2440E+002
 448.50  9.2556E+002
 449.00  9.3266E+002
 449.50  9.3710E+002
 450.00  9.4263E+002
 450.50  9.5404E+002
 451.00  9.5700E+002
 451.50  9.4785E+002
 452.00  9.4250E+002
 452.50  9.3796E+002
 453.00  9.2331E+002
 453.50  9.1325E+002
 454.00  9.0948E+002
 454.50  8.9940E+002
 455.00  8.9525E+002
 455.50  9.0356E+002
 456.00  9.0813E+002
 456.50  9.1424E+002
 457.00  9.2990E+002
 457.50  9.4082E+002
 458.00  9.3552E+002
 458.50  9.2547E+002
 459.00  9.1229E+002
 459.50  8.9596E+002
 460.00  8.8449E+002
 460.50  8.8968E+002
 461.00  9.1564E+002
 461.50  9.5082E+002
 462.00  9.7927E+002
 462.50  1.0005E+003
 463.00  1.0078E+003
 463.50  9.9300E+002
 464.00  9.6858E+002
 464.50  9.6223E+002
 465.00  9.6262E+002
 465.50  9.5681E+002
 466.00  9.5472E+002
 466.50  9.5384E+002
 467.00  9.3528E+002
 467.50  9.1047E+002
 468.00  8.9956E+002
 468.50  9.0074E+002
 469.00  9.0576E+002
 469.50  9.0868E+002
 470.00  9.1336E+002
 470.50  9.2152E+002
 471.00  9.2189E+002
 471.50  9.1644E+002
 472.00  9.1770E+002
 472.50  9.2135E+002
 473.00  9.1575E+002
 473.50  9.1597E+002
 474.00  9.2959E+002
 474.50  9.3341E+002
 475.00  9.2918E+002
 475.50  9.3176E+002
 476.00  9.3543E+002
 476.50  9.3592E+002
 477.00  9.4489E+002
 477.50  9.5955E+002
 478.00  9.6408E+002
 478.50  9.5685E+002
 479.00  9.5025E+002
 479.50  9.4729E+002
 480.00  9.4727E+002
 480.50  9.5679E+002
 481.00  9.6768E+002
 481.50  9.7093E+002
 482.00  9.6708E+002
 482.50  9.5555E+002
 483.00  9.4143E+002
 483.50  9.3692E+002
 484.00  9.4138E+002
 484.50  9.4777E+002
 485.00  9.5368E+002
 485.50  9.5168E+002
 486.00  9.3800E+002
 486.50  9.1899E+002
 487.00  9.0939E+002
 487.50  9.0345E+002
 488.00  8.9508E+002
 488.50  8.9140E+002
 489.00  8.8886E+002
 489.50  8.8111E+002
 490.00  8.7658E+002
 490.50  8.7670E+002
 491.00  8.7828E+002
 491.50  8.8509E+002
 492.00  8.9520E+002
 492.50  9.1125E+002
 493.00  9.3177E+002
 493.50  9.4423E+002
 494.00  9.4652E+002
 494.50  9.5282E+002
 495.00  9.6016E+002
 495.50  9.5914E+002
 496.00  9.5600E+002
 496.50  9.5575E+002
 497.00  9.5312E+002
 497.50  9.4905E+002
 498.00  9.5122E+002
 498.50  9.5613E+002
 499.00  9.5033E+002
 499.50  9.3741E+002
 500.00  9.3071E+002
 500.50  9.2782E+002
 501.00  9.2608E+002
 501.50  9.3075E+002
 502.00  9.3606E+002
 502.50  9.3428E+002
 503.00  9.3521E+002
 503.50  9.4176E+002
 504.00  9.4747E+002
 504.50  9.5058E+002
 505.00  9.5464E+002
 505.50  9.5608E+002
 506.00  9.6300E+002
 506.50  9.7109E+002
 507.00  9.7963E+002
 507.50  9.8647E+002
 508.00  9.9052E+002
 508.50  9.9022E+002
 509.00  9.8878E+002
 509.50  9.8510E+002
 510.00  9.7882E+002
 510.50  9.7099E+002
 511.00  9.6622E+002
 511.50  9.6251E+002
 512.00  9.5765E+002
 512.50  9.5090E+002
 513.00  9.4371E+002
 513.50  9.4407E+002
 514.00  9.5576E+002
 514.50  9.7146E+002
 515.00  9.8698E+002
 515.50  9.9820E+002
 516.00  9.9611E+002
 516.50  9.8809E+002
 517.00  9.8917E+002
 517.50  1.0018E+003
 518.00  1.0116E+003
 518.50  1.0136E+003
 519.00  1.0172E+003
 519.50  1.0241E+003
 520.00  1.0452E+003
 520.50  1.1185E+003
 521.00  1.2630E+003
 521.50  1.4966E+003
 522.00  1.8443E+003
 522.50  2.3135E+003
 523.00  2.9012E+003
 523.50  3.5897E+003
 524.00  4.2950E+003
 524.50  4.9019E+003
 525.00  5.3211E+003
 525.50  5.4900E+003
 526.00  5.3767E+003
 526.50  5.0132E+003
 527.00  4.4954E+003
 527.50  3.8841E+003
 528.00  3.2130E+003
 528.50  2.5724E+003
 529.00  2.0475E+003
 529.50  1.6444E+003
 530.00  1.3763E+003
 530.50  1.2294E+003
 531.00  1.1477E+003
 531.50  1.0982E+003
 532.00  1.0626E+003
 532.50  1.0256E+003
 533.00  9.9797E+002
 533.50  9.8408E+002
 534.00  9.7064E+002
 534.50  9.6361E+002
 535.00  9.6912E+002
 535.50  9.7551E+002
 536.00  9.7813E+002
 536.50  9.7411E+002
 537.00  9.6585E+002
 537.50  9.5762E+002
 538.00  9.5863E+002
 538.50  9.6482E+002
 539.00  9.6899E+002
 539.50  9.7509E+002
 540.00  9.7651E+002
 540.50  9.7134E+002
 541.00  9.7090E+002
 541.50  9.6480E+002
 542.00  9.5440E+002
 542.50  9.4541E+002
 543.00  9.3200E+002
 543.50  9.2487E+002
 544.00  9.3029E+002
 544.50  9.4286E+002
 545.00  9.5541E+002
 545.50  9.5663E+002
 546.00  9.5359E+002
 546.50  9.4669E+002
 547.00  9.3442E+002
 547.50  9.2902E+002
 548.00  9.2795E+002
 548.50  9.2477E+002
 549.00  9.1741E+002
 549.50  9.0116E+002
 550.00  8.9089E+002
 550.50  8.7755E+002
 551.00  8.7286E+002
 551.50  8.8044E+002
 552.00  8.8863E+002
 552.50  8.9686E+002
 553.00  9.0483E+002
 553.50  9.0557E+002
 554.00  9.0730E+002
 554.50  9.0732E+002
 555.00  9.1073E+002
 555.50  9.1664E+002
 556.00  9.2100E+002
 556.50  9.2310E+002
 557.00  9.2191E+002
 557.50  9.1551E+002
 558.00  9.1496E+002
 558.50  9.2668E+002
 559.00  9.5264E+002
 559.50  9.8286E+002
 560.00  1.0004E+003
 560.50  9.9581E+002
 561.00  9.7666E+002
 561.50  9.5545E+002
 562.00  9.3739E+002
 562.50  9.3582E+002
 563.00  9.5069E+002
 563.50  9.6163E+002
 564.00  9.6280E+002
 564.50  9.6040E+002
 565.00  9.5078E+002
 565.50  9.3419E+002
 566.00  9.1556E+002
 566.50  9.0033E+002
 567.00  8.9478E+002
 567.50  8.9794E+002
 568.00  9.0685E+002
 568.50  9.1966E+002
 569.00  9.3324E+002
 569.50  9.3542E+002
 570.00  9.2655E+002
 570.50  9.1421E+002
 571.00  9.0002E+002
 571.50  8.9223E+002
 572.00  8.9272E+002
 572.50  8.9824E+002
 573.00  9.1328E+002
 573.50  9.2314E+002
 574.00  9.1612E+002
 574.50  9.0706E+002
 575.00  9.0291E+002
 575.50  8.9577E+002
 576.00  8.8772E+002
 576.50  8.8587E+002
 577.00  8.8265E+002
 577.50  8.8023E+002
 578.00  8.8928E+002
 578.50  8.9633E+002
 579.00  9.1144E+002
 579.50  9.2862E+002
 580.00  9.3527E+002
 580.50  9.4421E+002
 581.00  9.5243E+002
 581.50  9.5214E+002
 582.00  9.4642E+002
 582.50  9.3035E+002
 583.00  9.1714E+002
 583.50  9.0649E+002
 584.00  8.9240E+002
 584.50  8.9420E+002
 585.00  9.0198E+002
 585.50  9.0110E+002
 586.00  9.0165E+002
 586.50  9.0509E+002
 587.00  9.1432E+002
 587.50  9.3293E+002
 588.00  9.5512E+002
 588.50  9.7405E+002
 589.00  9.8917E+002
 589.50  9.9773E+002
 590.00  9.9796E+002
 590.50  9.8659E+002
 591.00  9.7357E+002
 591.50  9.6100E+002
 592.00  9.5300E+002
 592.50  9.6021E+002
 593.00  9.6784E+002
 593.50  9.5403E+002
 594.00  9.3463E+002
 594.50  9.1278E+002
 595.00  8.8994E+002
 595.50  8.8787E+002
 596.00  8.9881E+002
 596.50  9.0679E+002
 597.00  9.1137E+002
 597.50  9.1280E+002
 598.00  9.0813E+002
 598.50  8.9758E+002
 599.00  8.9132E+002
 599.50  8.9480E+002
 600.00  9.0084E+002
 600.50  9.1281E+002
 601.00  9.2485E+002
 601.50  9.2722E+002
 602.00  9.2102E+002
 602.50  9.0938E+002
 603.00  8.9520E+002
 603.50  8.8876E+002
 604.00  8.9234E+002
 604.50  8.9977E+002
 605.00  9.0640E+002
 605.50  9.0645E+002
 606.00  8.9359E+002
 606.50  8.7897E+002
 607.00  8.7282E+002
 607.50  8.6979E+002
 608.00  8.7536E+002
 608.50  8.9121E+002
 609.00  8.9961E+002
 609.50  9.0380E+002
 610.00  9.1574E+002
 610.50  9.2483E+002
 611.00  9.3128E+002
 611.50  9.3580E+002
 612.00  9.3289E+002
 612.50  9.3431E+002
 613.00  9.3100E+002
 613.50  9.2703E+002
 614.00  9.2775E+002
 614.50  9.2551E+002
 615.00  9.3209E+002
 615.50  9.4337E+002
 616.00  9.4915E+002
 616.50  9.5301E+002
 617.00  9.4265E+002
 617.50  9.2590E+002
 618.00  9.1899E+002
 618.50  9.1323E+002
 619.00  9.1039E+002
 619.50  9.1312E+002
 620.00  9.1690E+002
 620.50  9.2645E+002
 621.00  9.4178E+002
 621.50  9.5230E+002
 622.00  9.5531E+002
 622.50  9.5552E+002
 623.00  9.5162E+002
 623.50  9.4923E+002
 624.00  9.5078E+002
 624.50  9.5416E+002
 625.00  9.5313E+002
 625.50  9.4467E+002
 626.00  9.3264E+002
 626.50  9.1995E+002
 627.00  9.0689E+002
 627.50  9.0346E+002
 628.00  9.1078E+002
 628.50  9.1744E+002
 629.00  9.1233E+002
 629.50  9.0629E+002
 630.00  8.9896E+002
 630.50  9.0296E+002
 631.00  9.1423E+002
 631.50  9.2102E+002
 632.00  9.2546E+002
 632.50  9.1387E+002
 633.00  8.9332E+002
 633.50  8.8980E+002
 634.00  8.8510E+002
 634.50  8.8858E+002
 635.00  9.0013E+002
 635.50  9.0909E+002
 636.00  9.2004E+002
 636.50  9.2680E+002
 637.00  9.2497E+002
 637.50  9.2681E+002
 638.00  9.3052E+002
 638.50  9.3842E+002
 639.00  9.5631E+002
 639.50  9.7774E+002
 640.00  9.7846E+002
 640.50  9.6493E+002
 641.00  9.5876E+002
