" File: Users\LabUser\Documents\MonochromatorCal
"  SCOPE->  Wave:693.48nm  Pix:1050  Val:905.000  Time:100ms  Avg:1  Sm:1  Sg:0  Tc:off  SNAP  Xt:3  Ch:1  Xtrig  
 191.00  8.0127E+002
 191.50  8.0498E+002
 192.00  8.3294E+002
 192.50  8.3951E+002
 193.00  8.3741E+002
 193.50  8.1791E+002
 194.00  8.1446E+002
 194.50  8.2227E+002
 195.00  8.1827E+002
 195.50  8.0878E+002
 196.00  8.0500E+002
 196.50  7.9868E+002
 197.00  7.9031E+002
 197.50  7.9641E+002
 198.00  8.0659E+002
 198.50  8.0743E+002
 199.00  7.9792E+002
 199.50  8.1101E+002
 200.00  8.4186E+002
 200.50  8.5705E+002
 201.00  8.4612E+002
 201.50  8.1042E+002
 202.00  8.2049E+002
 202.50  8.2982E+002
 203.00  8.3106E+002
 203.50  8.3241E+002
 204.00  8.3035E+002
 204.50  8.2744E+002
 205.00  8.2639E+002
 205.50  8.2375E+002
 206.00  8.1744E+002
 206.50  8.1364E+002
 207.00  8.1410E+002
 207.50  8.1635E+002
 208.00  8.2244E+002
 208.50  8.3169E+002
 209.00  8.3604E+002
 209.50  8.3505E+002
 210.00  8.3027E+002
 210.50  8.2385E+002
 211.00  8.2133E+002
 211.50  8.2767E+002
 212.00  8.3840E+002
 212.50  8.4614E+002
 213.00  8.5079E+002
 213.50  8.5379E+002
 214.00  8.5419E+002
 214.50  8.5315E+002
 215.00  8.5293E+002
 215.50  8.5499E+002
 216.00  8.5837E+002
 216.50  8.5807E+002
 217.00  8.5424E+002
 217.50  8.5219E+002
 218.00  8.5208E+002
 218.50  8.4874E+002
 219.00  8.4331E+002
 219.50  8.3672E+002
 220.00  8.2547E+002
 220.50  8.1062E+002
 221.00  8.0118E+002
 221.50  8.0057E+002
 222.00  8.0198E+002
 222.50  8.0733E+002
 223.00  8.1808E+002
 223.50  8.2278E+002
 224.00  8.1619E+002
 224.50  8.1261E+002
 225.00  8.1187E+002
 225.50  8.1030E+002
 226.00  8.0845E+002
 226.50  8.0786E+002
 227.00  8.1046E+002
 227.50  8.1326E+002
 228.00  8.1729E+002
 228.50  8.2318E+002
 229.00  8.2836E+002
 229.50  8.3083E+002
 230.00  8.3120E+002
 230.50  8.2960E+002
 231.00  8.2606E+002
 231.50  8.2947E+002
 232.00  8.3471E+002
 232.50  8.3401E+002
 233.00  8.3422E+002
 233.50  8.3914E+002
 234.00  8.3994E+002
 234.50  8.4202E+002
 235.00  8.5267E+002
 235.50  8.6291E+002
 236.00  8.6902E+002
 236.50  8.7325E+002
 237.00  8.7839E+002
 237.50  8.8384E+002
 238.00  8.8649E+002
 238.50  8.8146E+002
 239.00  8.6797E+002
 239.50  8.5205E+002
 240.00  8.3853E+002
 240.50  8.2970E+002
 241.00  8.2682E+002
 241.50  8.2983E+002
 242.00  8.3687E+002
 242.50  8.4399E+002
 243.00  8.4266E+002
 243.50  8.3878E+002
 244.00  8.4081E+002
 244.50  8.4476E+002
 245.00  8.4606E+002
 245.50  8.5145E+002
 246.00  8.5994E+002
 246.50  8.6980E+002
 247.00  8.7838E+002
 247.50  8.8149E+002
 248.00  8.7535E+002
 248.50  8.6195E+002
 249.00  8.4357E+002
 249.50  8.1984E+002
 250.00  8.0018E+002
 250.50  7.9469E+002
 251.00  7.9664E+002
 251.50  7.9841E+002
 252.00  8.0302E+002
 252.50  8.0770E+002
 253.00  8.0465E+002
 253.50  7.9653E+002
 254.00  7.9136E+002
 254.50  7.8742E+002
 255.00  7.8328E+002
 255.50  7.8722E+002
 256.00  7.9686E+002
 256.50  8.0443E+002
 257.00  8.0931E+002
 257.50  8.1431E+002
 258.00  8.1617E+002
 258.50  8.1656E+002
 259.00  8.2038E+002
 259.50  8.2501E+002
 260.00  8.2695E+002
 260.50  8.2850E+002
 261.00  8.3096E+002
 261.50  8.3277E+002
 262.00  8.3644E+002
 262.50  8.4093E+002
 263.00  8.4300E+002
 263.50  8.4071E+002
 264.00  8.3841E+002
 264.50  8.3973E+002
 265.00  8.4889E+002
 265.50  8.5604E+002
 266.00  8.5766E+002
 266.50  8.5405E+002
 267.00  8.4442E+002
 267.50  8.3358E+002
 268.00  8.3046E+002
 268.50  8.3355E+002
 269.00  8.4067E+002
 269.50  8.5152E+002
 270.00  8.6163E+002
 270.50  8.6598E+002
 271.00  8.6546E+002
 271.50  8.6322E+002
 272.00  8.6048E+002
 272.50  8.5779E+002
 273.00  8.5261E+002
 273.50  8.4521E+002
 274.00  8.4186E+002
 274.50  8.3968E+002
 275.00  8.3607E+002
 275.50  8.3514E+002
 276.00  8.4149E+002
 276.50  8.4783E+002
 277.00  8.4894E+002
 277.50  8.4559E+002
 278.00  8.4193E+002
 278.50  8.3926E+002
 279.00  8.3504E+002
 279.50  8.2609E+002
 280.00  8.1532E+002
 280.50  8.0555E+002
 281.00  7.9758E+002
 281.50  7.9540E+002
 282.00  8.0130E+002
 282.50  8.1168E+002
 283.00  8.2520E+002
 283.50  8.3893E+002
 284.00  8.4615E+002
 284.50  8.4834E+002
 285.00  8.5172E+002
 285.50  8.5182E+002
 286.00  8.4352E+002
 286.50  8.3752E+002
 287.00  8.3559E+002
 287.50  8.3380E+002
 288.00  8.3347E+002
 288.50  8.3850E+002
 289.00  8.4484E+002
 289.50  8.4510E+002
 290.00  8.3621E+002
 290.50  8.2365E+002
 291.00  8.1053E+002
 291.50  7.9900E+002
 292.00  7.9901E+002
 292.50  8.0570E+002
 293.00  8.1612E+002
 293.50  8.3498E+002
 294.00  8.5309E+002
 294.50  8.6104E+002
 295.00  8.6401E+002
 295.50  8.6416E+002
 296.00  8.5699E+002
 296.50  8.4637E+002
 297.00  8.3907E+002
 297.50  8.3803E+002
 298.00  8.4501E+002
 298.50  8.5655E+002
 299.00  8.6731E+002
 299.50  8.7681E+002
 300.00  8.8370E+002
 300.50  8.8447E+002
 301.00  8.7989E+002
 301.50  8.7350E+002
 302.00  8.6370E+002
 302.50  8.5677E+002
 303.00  8.5572E+002
 303.50  8.5910E+002
 304.00  8.6672E+002
 304.50  8.7934E+002
 305.00  8.8800E+002
 305.50  8.9070E+002
 306.00  8.9280E+002
 306.50  8.9260E+002
 307.00  8.9260E+002
 307.50  8.8905E+002
 308.00  8.8100E+002
 308.50  8.7052E+002
 309.00  8.6289E+002
 309.50  8.5221E+002
 310.00  8.4364E+002
 310.50  8.4014E+002
 311.00  8.3810E+002
 311.50  8.3384E+002
 312.00  8.2975E+002
 312.50  8.2847E+002
 313.00  8.2956E+002
 313.50  8.3169E+002
 314.00  8.3582E+002
 314.50  8.4086E+002
 315.00  8.4070E+002
 315.50  8.3566E+002
 316.00  8.2971E+002
 316.50  8.2327E+002
 317.00  8.1761E+002
 317.50  8.1503E+002
 318.00  8.1399E+002
 318.50  8.1234E+002
 319.00  8.1045E+002
 319.50  8.0679E+002
 320.00  8.0141E+002
 320.50  7.9613E+002
 321.00  7.9511E+002
 321.50  7.9624E+002
 322.00  8.0114E+002
 322.50  8.1038E+002
 323.00  8.1540E+002
 323.50  8.1939E+002
 324.00  8.3234E+002
 324.50  8.4199E+002
 325.00  8.4440E+002
 325.50  8.5463E+002
 326.00  8.6656E+002
 326.50  8.6240E+002
 327.00  8.5719E+002
 327.50  8.5640E+002
 328.00  8.5875E+002
 328.50  8.6129E+002
 329.00  8.6667E+002
 329.50  8.6718E+002
 330.00  8.5817E+002
 330.50  8.4394E+002
 331.00  8.3527E+002
 331.50  8.3098E+002
 332.00  8.3007E+002
 332.50  8.3942E+002
 333.00  8.5479E+002
 333.50  8.6302E+002
 334.00  8.6714E+002
 334.50  8.7439E+002
 335.00  8.7863E+002
 335.50  8.7302E+002
 336.00  8.6416E+002
 336.50  8.5612E+002
 337.00  8.4765E+002
 337.50  8.4099E+002
 338.00  8.4026E+002
 338.50  8.4002E+002
 339.00  8.3377E+002
 339.50  8.2358E+002
 340.00  8.1661E+002
 340.50  8.1380E+002
 341.00  8.1073E+002
 341.50  8.0891E+002
 342.00  8.0931E+002
 342.50  8.0662E+002
 343.00  8.0621E+002
 343.50  8.1746E+002
 344.00  8.3056E+002
 344.50  8.3453E+002
 345.00  8.3429E+002
 345.50  8.2955E+002
 346.00  8.1769E+002
 346.50  8.0989E+002
 347.00  8.1192E+002
 347.50  8.1740E+002
 348.00  8.2109E+002
 348.50  8.2167E+002
 349.00  8.1666E+002
 349.50  8.1488E+002
 350.00  8.1996E+002
 350.50  8.2219E+002
 351.00  8.1864E+002
 351.50  8.1669E+002
 352.00  8.1418E+002
 352.50  8.0653E+002
 353.00  8.0366E+002
 353.50  8.1379E+002
 354.00  8.3178E+002
 354.50  8.4610E+002
 355.00  8.5698E+002
 355.50  8.6582E+002
 356.00  8.6935E+002
 356.50  8.7174E+002
 357.00  8.7638E+002
 357.50  8.7845E+002
 358.00  8.7514E+002
 358.50  8.6982E+002
 359.00  8.5702E+002
 359.50  8.4375E+002
 360.00  8.3857E+002
 360.50  8.3907E+002
 361.00  8.4560E+002
 361.50  8.6231E+002
 362.00  8.8101E+002
 362.50  8.8986E+002
 363.00  8.9578E+002
 363.50  8.9628E+002
 364.00  8.8376E+002
 364.50  8.6785E+002
 365.00  8.5860E+002
 365.50  8.4845E+002
 366.00  8.4139E+002
 366.50  8.4102E+002
 367.00  8.3807E+002
 367.50  8.3281E+002
 368.00  8.3295E+002
 368.50  8.3194E+002
 369.00  8.3080E+002
 369.50  8.3095E+002
 370.00  8.3451E+002
 370.50  8.3723E+002
 371.00  8.3815E+002
 371.50  8.4274E+002
 372.00  8.4707E+002
 372.50  8.4246E+002
 373.00  8.3748E+002
 373.50  8.4051E+002
 374.00  8.3638E+002
 374.50  8.2620E+002
 375.00  8.2647E+002
 375.50  8.3014E+002
 376.00  8.2720E+002
 376.50  8.2752E+002
 377.00  8.3393E+002
 377.50  8.2967E+002
 378.00  8.2255E+002
 378.50  8.1989E+002
 379.00  8.1395E+002
 379.50  8.1132E+002
 380.00  8.1708E+002
 380.50  8.2073E+002
 381.00  8.1780E+002
 381.50  8.1781E+002
 382.00  8.1799E+002
 382.50  8.1769E+002
 383.00  8.2063E+002
 383.50  8.2130E+002
 384.00  8.1832E+002
 384.50  8.1645E+002
 385.00  8.2299E+002
 385.50  8.3673E+002
 386.00  8.5241E+002
 386.50  8.6416E+002
 387.00  8.6662E+002
 387.50  8.5936E+002
 388.00  8.4284E+002
 388.50  8.3200E+002
 389.00  8.2948E+002
 389.50  8.3058E+002
 390.00  8.3303E+002
 390.50  8.3804E+002
 391.00  8.4261E+002
 391.50  8.4532E+002
 392.00  8.5210E+002
 392.50  8.5586E+002
 393.00  8.5191E+002
 393.50  8.4132E+002
 394.00  8.3203E+002
 394.50  8.2897E+002
 395.00  8.3324E+002
 395.50  8.3982E+002
 396.00  8.5216E+002
 396.50  8.6620E+002
 397.00  8.7035E+002
 397.50  8.6653E+002
 398.00  8.6130E+002
 398.50  8.5310E+002
 399.00  8.4268E+002
 399.50  8.3362E+002
 400.00  8.3379E+002
 400.50  8.4401E+002
 401.00  8.5431E+002
 401.50  8.5789E+002
 402.00  8.6013E+002
 402.50  8.5759E+002
 403.00  8.5135E+002
 403.50  8.4551E+002
 404.00  8.3981E+002
 404.50  8.3595E+002
 405.00  8.3285E+002
 405.50  8.2691E+002
 406.00  8.2044E+002
 406.50  8.1890E+002
 407.00  8.1477E+002
 407.50  8.1068E+002
 408.00  8.1327E+002
 408.50  8.1977E+002
 409.00  8.3010E+002
 409.50  8.4325E+002
 410.00  8.4782E+002
 410.50  8.4514E+002
 411.00  8.4361E+002
 411.50  8.3874E+002
 412.00  8.3325E+002
 412.50  8.3479E+002
 413.00  8.3830E+002
 413.50  8.3784E+002
 414.00  8.3692E+002
 414.50  8.3772E+002
 415.00  8.3955E+002
 415.50  8.4140E+002
 416.00  8.4367E+002
 416.50  8.4486E+002
 417.00  8.4554E+002
 417.50  8.5190E+002
 418.00  8.5815E+002
 418.50  8.6047E+002
 419.00  8.6423E+002
 419.50  8.6784E+002
 420.00  8.6220E+002
 420.50  8.5896E+002
 421.00  8.6170E+002
 421.50  8.6775E+002
 422.00  8.7803E+002
 422.50  8.8624E+002
 423.00  8.8863E+002
 423.50  8.8333E+002
 424.00  8.6529E+002
 424.50  8.4118E+002
 425.00  8.2738E+002
 425.50  8.2066E+002
 426.00  8.2029E+002
 426.50  8.2866E+002
 427.00  8.3675E+002
 427.50  8.3924E+002
 428.00  8.3707E+002
 428.50  8.3561E+002
 429.00  8.3384E+002
 429.50  8.3134E+002
 430.00  8.3080E+002
 430.50  8.3620E+002
 431.00  8.4484E+002
 431.50  8.5230E+002
 432.00  8.5937E+002
 432.50  8.6140E+002
 433.00  8.5350E+002
 433.50  8.4322E+002
 434.00  8.4035E+002
 434.50  8.4044E+002
 435.00  8.4137E+002
 435.50  8.4194E+002
 436.00  8.3399E+002
 436.50  8.2022E+002
 437.00  8.0957E+002
 437.50  8.0084E+002
 438.00  7.9465E+002
 438.50  7.9537E+002
 439.00  8.0009E+002
 439.50  8.0290E+002
 440.00  8.0582E+002
 440.50  8.1217E+002
 441.00  8.1658E+002
 441.50  8.1394E+002
 442.00  8.1311E+002
 442.50  8.2079E+002
 443.00  8.2744E+002
 443.50  8.2771E+002
 444.00  8.2814E+002
 444.50  8.3133E+002
 445.00  8.3236E+002
 445.50  8.4061E+002
 446.00  8.5664E+002
 446.50  8.6151E+002
 447.00  8.5909E+002
 447.50  8.5704E+002
 448.00  8.5099E+002
 448.50  8.4678E+002
 449.00  8.5622E+002
 449.50  8.6530E+002
 450.00  8.6635E+002
 450.50  8.6693E+002
 451.00  8.6911E+002
 451.50  8.7035E+002
 452.00  8.7155E+002
 452.50  8.7001E+002
 453.00  8.6503E+002
 453.50  8.5700E+002
 454.00  8.4595E+002
 454.50  8.3781E+002
 455.00  8.3380E+002
 455.50  8.3127E+002
 456.00  8.2823E+002
 456.50  8.2619E+002
 457.00  8.3215E+002
 457.50  8.3939E+002
 458.00  8.3930E+002
 458.50  8.4317E+002
 459.00  8.4504E+002
 459.50  8.3623E+002
 460.00  8.3518E+002
 460.50  8.4147E+002
 461.00  8.4594E+002
 461.50  8.5356E+002
 462.00  8.6004E+002
 462.50  8.5328E+002
 463.00  8.4288E+002
 463.50  8.2984E+002
 464.00  8.2058E+002
 464.50  8.1908E+002
 465.00  8.2248E+002
 465.50  8.2420E+002
 466.00  8.2313E+002
 466.50  8.1645E+002
 467.00  8.0494E+002
 467.50  8.0148E+002
 468.00  8.0872E+002
 468.50  8.1715E+002
 469.00  8.2529E+002
 469.50  8.3360E+002
 470.00  8.3103E+002
 470.50  8.1858E+002
 471.00  8.0904E+002
 471.50  8.0133E+002
 472.00  7.9146E+002
 472.50  7.8893E+002
 473.00  7.9595E+002
 473.50  8.0713E+002
 474.00  8.2279E+002
 474.50  8.4040E+002
 475.00  8.5460E+002
 475.50  8.5867E+002
 476.00  8.5613E+002
 476.50  8.5416E+002
 477.00  8.5160E+002
 477.50  8.5267E+002
 478.00  8.5804E+002
 478.50  8.6072E+002
 479.00  8.6310E+002
 479.50  8.6820E+002
 480.00  8.6916E+002
 480.50  8.6922E+002
 481.00  8.7122E+002
 481.50  8.7017E+002
 482.00  8.6934E+002
 482.50  8.7761E+002
 483.00  8.8689E+002
 483.50  8.8709E+002
 484.00  8.8238E+002
 484.50  8.7398E+002
 485.00  8.5873E+002
 485.50  8.4474E+002
 486.00  8.4244E+002
 486.50  8.4245E+002
 487.00  8.3732E+002
 487.50  8.3092E+002
 488.00  8.2631E+002
 488.50  8.2440E+002
 489.00  8.2520E+002
 489.50  8.2775E+002
 490.00  8.2922E+002
 490.50  8.2461E+002
 491.00  8.0988E+002
 491.50  7.8843E+002
 492.00  7.7287E+002
 492.50  7.6181E+002
 493.00  7.5271E+002
 493.50  7.5843E+002
 494.00  7.7263E+002
 494.50  7.8210E+002
 495.00  8.0000E+002
 495.50  8.2095E+002
 496.00  8.2935E+002
 496.50  8.3420E+002
 497.00  8.3497E+002
 497.50  8.3104E+002
 498.00  8.2600E+002
 498.50  8.2180E+002
 499.00  8.2617E+002
 499.50  8.3410E+002
 500.00  8.3908E+002
 500.50  8.4637E+002
 501.00  8.5000E+002
 501.50  8.4393E+002
 502.00  8.3529E+002
 502.50  8.2808E+002
 503.00  8.2413E+002
 503.50  8.2783E+002
 504.00  8.3364E+002
 504.50  8.4015E+002
 505.00  8.4912E+002
 505.50  8.5584E+002
 506.00  8.5966E+002
 506.50  8.6070E+002
 507.00  8.6287E+002
 507.50  8.5912E+002
 508.00  8.5073E+002
 508.50  8.4570E+002
 509.00  8.4246E+002
 509.50  8.4267E+002
 510.00  8.5041E+002
 510.50  8.5866E+002
 511.00  8.6214E+002
 511.50  8.6115E+002
 512.00  8.5683E+002
 512.50  8.5546E+002
 513.00  8.6052E+002
 513.50  8.6545E+002
 514.00  8.6094E+002
 514.50  8.4877E+002
 515.00  8.4060E+002
 515.50  8.3512E+002
 516.00  8.2923E+002
 516.50  8.3127E+002
 517.00  8.3943E+002
 517.50  8.4311E+002
 518.00  8.4368E+002
 518.50  8.4347E+002
 519.00  8.4088E+002
 519.50  8.3700E+002
 520.00  8.3210E+002
 520.50  8.2938E+002
 521.00  8.2979E+002
 521.50  8.2559E+002
 522.00  8.2076E+002
 522.50  8.1674E+002
 523.00  8.1402E+002
 523.50  8.1043E+002
 524.00  8.0410E+002
 524.50  7.9828E+002
 525.00  7.9610E+002
 525.50  7.9856E+002
 526.00  8.0478E+002
 526.50  8.1218E+002
 527.00  8.2498E+002
 527.50  8.4144E+002
 528.00  8.5776E+002
 528.50  8.7574E+002
 529.00  8.8941E+002
 529.50  8.8892E+002
 530.00  8.8151E+002
 530.50  8.6984E+002
 531.00  8.5935E+002
 531.50  8.5566E+002
 532.00  8.5225E+002
 532.50  8.5035E+002
 533.00  8.5509E+002
 533.50  8.5640E+002
 534.00  8.5374E+002
 534.50  8.5687E+002
 535.00  8.5885E+002
 535.50  8.5330E+002
 536.00  8.4679E+002
 536.50  8.4646E+002
 537.00  8.4854E+002
 537.50  8.4644E+002
 538.00  8.4832E+002
 538.50  8.5065E+002
 539.00  8.4776E+002
 539.50  8.4471E+002
 540.00  8.4950E+002
 540.50  8.5693E+002
 541.00  8.5900E+002
 541.50  8.5752E+002
 542.00  8.5864E+002
 542.50  8.5081E+002
 543.00  8.3847E+002
 543.50  8.3538E+002
 544.00  8.2855E+002
 544.50  8.1648E+002
 545.00  8.0984E+002
 545.50  8.0760E+002
 546.00  8.0640E+002
 546.50  8.1123E+002
 547.00  8.1717E+002
 547.50  8.1816E+002
 548.00  8.1621E+002
 548.50  8.1705E+002
 549.00  8.2225E+002
 549.50  8.2603E+002
 550.00  8.2280E+002
 550.50  8.2334E+002
 551.00  8.2489E+002
 551.50  8.2514E+002
 552.00  8.3465E+002
 552.50  8.4877E+002
 553.00  8.5162E+002
 553.50  8.4581E+002
 554.00  8.4380E+002
 554.50  8.4549E+002
 555.00  8.5082E+002
 555.50  8.6285E+002
 556.00  8.6743E+002
 556.50  8.6086E+002
 557.00  8.5481E+002
 557.50  8.4898E+002
 558.00  8.4879E+002
 558.50  8.5715E+002
 559.00  8.6910E+002
 559.50  8.7890E+002
 560.00  8.8367E+002
 560.50  8.8591E+002
 561.00  8.7918E+002
 561.50  8.6270E+002
 562.00  8.5089E+002
 562.50  8.5076E+002
 563.00  8.5715E+002
 563.50  8.6553E+002
 564.00  8.7396E+002
 564.50  8.7947E+002
 565.00  8.7978E+002
 565.50  8.7650E+002
 566.00  8.6977E+002
 566.50  8.6212E+002
 567.00  8.5718E+002
 567.50  8.5535E+002
 568.00  8.6005E+002
 568.50  8.7229E+002
 569.00  8.8297E+002
 569.50  8.8290E+002
 570.00  8.7170E+002
 570.50  8.5879E+002
 571.00  8.5201E+002
 571.50  8.4879E+002
 572.00  8.4938E+002
 572.50  8.6214E+002
 573.00  8.7267E+002
 573.50  8.7496E+002
 574.00  8.7106E+002
 574.50  8.6708E+002
 575.00  8.5884E+002
 575.50  8.4981E+002
 576.00  8.4433E+002
 576.50  8.3839E+002
 577.00  8.2966E+002
 577.50  8.2299E+002
 578.00  8.2372E+002
 578.50  8.3100E+002
 579.00  8.4251E+002
 579.50  8.5722E+002
 580.00  8.6379E+002
 580.50  8.5890E+002
 581.00  8.5741E+002
 581.50  8.5666E+002
 582.00  8.5060E+002
 582.50  8.4489E+002
 583.00  8.4543E+002
 583.50  8.4877E+002
 584.00  8.5308E+002
 584.50  8.6270E+002
 585.00  8.7745E+002
 585.50  8.8846E+002
 586.00  8.8730E+002
 586.50  8.7864E+002
 587.00  8.7339E+002
 587.50  8.6855E+002
 588.00  8.6653E+002
 588.50  8.7917E+002
 589.00  8.9427E+002
 589.50  9.0156E+002
 590.00  9.0630E+002
 590.50  9.0624E+002
 591.00  8.9928E+002
 591.50  8.9515E+002
 592.00  8.8606E+002
 592.50  8.6925E+002
 593.00  8.6227E+002
 593.50  8.6510E+002
 594.00  8.6008E+002
 594.50  8.5677E+002
 595.00  8.6218E+002
 595.50  8.6650E+002
 596.00  8.6813E+002
 596.50  8.8026E+002
 597.00  8.9741E+002
 597.50  9.0708E+002
 598.00  9.1487E+002
 598.50  9.1698E+002
 599.00  9.0641E+002
 599.50  8.9336E+002
 600.00  8.8629E+002
 600.50  8.8370E+002
 601.00  8.9238E+002
 601.50  9.0806E+002
 602.00  9.1636E+002
 602.50  9.1435E+002
 603.00  9.0865E+002
 603.50  8.9295E+002
 604.00  8.7111E+002
 604.50  8.5703E+002
 605.00  8.4718E+002
 605.50  8.3181E+002
 606.00  8.2532E+002
 606.50  8.2849E+002
 607.00  8.2404E+002
 607.50  8.2651E+002
 608.00  8.3956E+002
 608.50  8.5039E+002
 609.00  8.6402E+002
 609.50  8.8121E+002
 610.00  8.9234E+002
 610.50  8.9903E+002
 611.00  9.0100E+002
 611.50  8.9418E+002
 612.00  8.8835E+002
 612.50  8.8975E+002
 613.00  8.9522E+002
 613.50  9.0721E+002
 614.00  9.2196E+002
 614.50  9.3152E+002
 615.00  9.3628E+002
 615.50  9.3611E+002
 616.00  9.3527E+002
 616.50  9.3463E+002
 617.00  9.2566E+002
 617.50  9.1649E+002
 618.00  9.1609E+002
 618.50  9.2122E+002
 619.00  9.2978E+002
 619.50  9.3453E+002
 620.00  9.2649E+002
 620.50  9.1547E+002
 621.00  9.0613E+002
 621.50  9.0176E+002
 622.00  9.0096E+002
 622.50  8.9846E+002
 623.00  8.9596E+002
 623.50  8.9486E+002
 624.00  8.9585E+002
 624.50  9.0062E+002
 625.00  9.0885E+002
 625.50  9.1312E+002
 626.00  9.1126E+002
 626.50  9.0873E+002
 627.00  9.0398E+002
 627.50  8.9639E+002
 628.00  8.9027E+002
 628.50  8.9220E+002
 629.00  9.0589E+002
 629.50  9.2443E+002
 630.00  9.4160E+002
 630.50  9.5550E+002
 631.00  9.5912E+002
 631.50  9.5476E+002
 632.00  9.4708E+002
 632.50  9.4214E+002
 633.00  9.3542E+002
 633.50  9.2741E+002
 634.00  9.3274E+002
 634.50  9.3984E+002
 635.00  9.5122E+002
 635.50  9.6708E+002
 636.00  9.7283E+002
 636.50  9.7005E+002
 637.00  9.6832E+002
 637.50  9.7202E+002
 638.00  9.8495E+002
 638.50  9.9997E+002
 639.00  1.0141E+003
 639.50  1.0282E+003
 640.00  1.0396E+003
 640.50  1.0513E+003
 641.00  1.0721E+003
