" File: Users\LabUser\Documents\MonochromatorCal
"  SCOPE->  Wave:693.48nm  Pix:1050  Val:852.000  Time: 10ms  Avg:1  Sm:1  Sg:0  Tc:off  SNAP  Xt:3  Ch:1  Xtrig  
 191.00  8.8894E+002
 191.50  8.9401E+002
 192.00  8.8003E+002
 192.50  8.4930E+002
 193.00  8.3319E+002
 193.50  8.2941E+002
 194.00  8.3774E+002
 194.50  8.4761E+002
 195.00  8.5635E+002
 195.50  8.5103E+002
 196.00  8.3239E+002
 196.50  8.1526E+002
 197.00  8.0603E+002
 197.50  8.0647E+002
 198.00  8.2156E+002
 198.50  8.3200E+002
 199.00  8.3154E+002
 199.50  8.2500E+002
 200.00  8.0630E+002
 200.50  8.1283E+002
 201.00  8.2688E+002
 201.50  8.0260E+002
 202.00  7.9908E+002
 202.50  8.0127E+002
 203.00  8.0332E+002
 203.50  8.0965E+002
 204.00  8.1739E+002
 204.50  8.2514E+002
 205.00  8.3330E+002
 205.50  8.3904E+002
 206.00  8.4176E+002
 206.50  8.4489E+002
 207.00  8.4693E+002
 207.50  8.3587E+002
 208.00  8.3103E+002
 208.50  8.3827E+002
 209.00  8.3992E+002
 209.50  8.3432E+002
 210.00  8.2980E+002
 210.50  8.2268E+002
 211.00  8.0859E+002
 211.50  7.9528E+002
 212.00  7.9230E+002
 212.50  7.9858E+002
 213.00  8.0639E+002
 213.50  8.1231E+002
 214.00  8.1894E+002
 214.50  8.2481E+002
 215.00  8.3003E+002
 215.50  8.4037E+002
 216.00  8.5877E+002
 216.50  8.7562E+002
 217.00  8.8614E+002
 217.50  8.9028E+002
 218.00  8.8918E+002
 218.50  8.8353E+002
 219.00  8.7370E+002
 219.50  8.6368E+002
 220.00  8.5678E+002
 220.50  8.5384E+002
 221.00  8.5367E+002
 221.50  8.5508E+002
 222.00  8.5894E+002
 222.50  8.6067E+002
 223.00  8.5586E+002
 223.50  8.4530E+002
 224.00  8.3738E+002
 224.50  8.2945E+002
 225.00  8.2758E+002
 225.50  8.3423E+002
 226.00  8.4491E+002
 226.50  8.5638E+002
 227.00  8.6936E+002
 227.50  8.7700E+002
 228.00  8.7670E+002
 228.50  8.7381E+002
 229.00  8.6881E+002
 229.50  8.5782E+002
 230.00  8.4462E+002
 230.50  8.3454E+002
 231.00  8.2184E+002
 231.50  8.0460E+002
 232.00  7.9099E+002
 232.50  7.8625E+002
 233.00  7.8702E+002
 233.50  7.9213E+002
 234.00  8.0244E+002
 234.50  8.0900E+002
 235.00  8.1205E+002
 235.50  8.1437E+002
 236.00  8.2061E+002
 236.50  8.2547E+002
 237.00  8.2888E+002
 237.50  8.3440E+002
 238.00  8.4179E+002
 238.50  8.4802E+002
 239.00  8.5243E+002
 239.50  8.5514E+002
 240.00  8.5388E+002
 240.50  8.5011E+002
 241.00  8.4685E+002
 241.50  8.4260E+002
 242.00  8.3944E+002
 242.50  8.4003E+002
 243.00  8.4288E+002
 243.50  8.4227E+002
 244.00  8.3618E+002
 244.50  8.2678E+002
 245.00  8.2055E+002
 245.50  8.1707E+002
 246.00  8.1382E+002
 246.50  8.1517E+002
 247.00  8.2298E+002
 247.50  8.3436E+002
 248.00  8.4338E+002
 248.50  8.4585E+002
 249.00  8.4385E+002
 249.50  8.4303E+002
 250.00  8.4588E+002
 250.50  8.4951E+002
 251.00  8.5385E+002
 251.50  8.6382E+002
 252.00  8.7175E+002
 252.50  8.6609E+002
 253.00  8.5123E+002
 253.50  8.4011E+002
 254.00  8.3262E+002
 254.50  8.2385E+002
 255.00  8.1984E+002
 255.50  8.2462E+002
 256.00  8.3135E+002
 256.50  8.3433E+002
 257.00  8.3062E+002
 257.50  8.2344E+002
 258.00  8.1391E+002
 258.50  8.0111E+002
 259.00  7.9016E+002
 259.50  7.9010E+002
 260.00  8.0179E+002
 260.50  8.1667E+002
 261.00  8.2958E+002
 261.50  8.3871E+002
 262.00  8.4003E+002
 262.50  8.3632E+002
 263.00  8.2999E+002
 263.50  8.2778E+002
 264.00  8.3218E+002
 264.50  8.3277E+002
 265.00  8.3080E+002
 265.50  8.2835E+002
 266.00  8.2437E+002
 266.50  8.1813E+002
 267.00  8.1423E+002
 267.50  8.1284E+002
 268.00  8.1273E+002
 268.50  8.1157E+002
 269.00  8.0851E+002
 269.50  8.0861E+002
 270.00  8.1324E+002
 270.50  8.1865E+002
 271.00  8.2361E+002
 271.50  8.2776E+002
 272.00  8.2907E+002
 272.50  8.2765E+002
 273.00  8.2655E+002
 273.50  8.3022E+002
 274.00  8.3740E+002
 274.50  8.4763E+002
 275.00  8.5780E+002
 275.50  8.6361E+002
 276.00  8.6013E+002
 276.50  8.5494E+002
 277.00  8.5555E+002
 277.50  8.5398E+002
 278.00  8.5139E+002
 278.50  8.5199E+002
 279.00  8.5565E+002
 279.50  8.5720E+002
 280.00  8.5102E+002
 280.50  8.4330E+002
 281.00  8.3991E+002
 281.50  8.3570E+002
 282.00  8.3174E+002
 282.50  8.3469E+002
 283.00  8.4201E+002
 283.50  8.4426E+002
 284.00  8.3807E+002
 284.50  8.2820E+002
 285.00  8.2042E+002
 285.50  8.1672E+002
 286.00  8.1673E+002
 286.50  8.2429E+002
 287.00  8.3626E+002
 287.50  8.3828E+002
 288.00  8.3107E+002
 288.50  8.2588E+002
 289.00  8.2079E+002
 289.50  8.1503E+002
 290.00  8.1580E+002
 290.50  8.2333E+002
 291.00  8.2360E+002
 291.50  8.1551E+002
 292.00  8.0508E+002
 292.50  7.9744E+002
 293.00  7.9380E+002
 293.50  7.9335E+002
 294.00  7.9472E+002
 294.50  7.9984E+002
 295.00  8.0475E+002
 295.50  8.0633E+002
 296.00  8.0786E+002
 296.50  8.1226E+002
 297.00  8.1524E+002
 297.50  8.1498E+002
 298.00  8.1634E+002
 298.50  8.1976E+002
 299.00  8.2377E+002
 299.50  8.3053E+002
 300.00  8.3803E+002
 300.50  8.4067E+002
 301.00  8.3789E+002
 301.50  8.3689E+002
 302.00  8.4156E+002
 302.50  8.4734E+002
 303.00  8.4942E+002
 303.50  8.5451E+002
 304.00  8.6252E+002
 304.50  8.6144E+002
 305.00  8.5659E+002
 305.50  8.5905E+002
 306.00  8.6005E+002
 306.50  8.5091E+002
 307.00  8.4311E+002
 307.50  8.3626E+002
 308.00  8.3326E+002
 308.50  8.3335E+002
 309.00  8.3937E+002
 309.50  8.4652E+002
 310.00  8.5244E+002
 310.50  8.5623E+002
 311.00  8.5505E+002
 311.50  8.5223E+002
 312.00  8.5196E+002
 312.50  8.4925E+002
 313.00  8.4082E+002
 313.50  8.3476E+002
 314.00  8.3101E+002
 314.50  8.2231E+002
 315.00  8.1448E+002
 315.50  8.1470E+002
 316.00  8.1570E+002
 316.50  8.1156E+002
 317.00  8.1010E+002
 317.50  8.1805E+002
 318.00  8.2932E+002
 318.50  8.3816E+002
 319.00  8.4647E+002
 319.50  8.5079E+002
 320.00  8.4531E+002
 320.50  8.3267E+002
 321.00  8.2013E+002
 321.50  8.1325E+002
 322.00  8.1460E+002
 322.50  8.2271E+002
 323.00  8.3144E+002
 323.50  8.3813E+002
 324.00  8.4484E+002
 324.50  8.5002E+002
 325.00  8.4990E+002
 325.50  8.4737E+002
 326.00  8.4975E+002
 326.50  8.5543E+002
 327.00  8.5617E+002
 327.50  8.5440E+002
 328.00  8.4931E+002
 328.50  8.4536E+002
 329.00  8.4031E+002
 329.50  8.3576E+002
 330.00  8.3468E+002
 330.50  8.3690E+002
 331.00  8.3530E+002
 331.50  8.2890E+002
 332.00  8.2498E+002
 332.50  8.1888E+002
 333.00  8.1696E+002
 333.50  8.2628E+002
 334.00  8.3629E+002
 334.50  8.4321E+002
 335.00  8.4799E+002
 335.50  8.4523E+002
 336.00  8.3598E+002
 336.50  8.2854E+002
 337.00  8.2211E+002
 337.50  8.1993E+002
 338.00  8.2592E+002
 338.50  8.3296E+002
 339.00  8.4131E+002
 339.50  8.5532E+002
 340.00  8.7093E+002
 340.50  8.8305E+002
 341.00  8.9095E+002
 341.50  8.9180E+002
 342.00  8.8305E+002
 342.50  8.6984E+002
 343.00  8.5981E+002
 343.50  8.5441E+002
 344.00  8.5176E+002
 344.50  8.5295E+002
 345.00  8.5738E+002
 345.50  8.6326E+002
 346.00  8.7056E+002
 346.50  8.7539E+002
 347.00  8.7576E+002
 347.50  8.7189E+002
 348.00  8.6274E+002
 348.50  8.5040E+002
 349.00  8.4099E+002
 349.50  8.3483E+002
 350.00  8.3530E+002
 350.50  8.4116E+002
 351.00  8.3996E+002
 351.50  8.3427E+002
 352.00  8.3132E+002
 352.50  8.2694E+002
 353.00  8.2280E+002
 353.50  8.2415E+002
 354.00  8.2924E+002
 354.50  8.3307E+002
 355.00  8.3727E+002
 355.50  8.4031E+002
 356.00  8.4697E+002
 356.50  8.5453E+002
 357.00  8.6045E+002
 357.50  8.6523E+002
 358.00  8.6431E+002
 358.50  8.5792E+002
 359.00  8.5323E+002
 359.50  8.5405E+002
 360.00  8.5914E+002
 360.50  8.6668E+002
 361.00  8.6867E+002
 361.50  8.6860E+002
 362.00  8.6210E+002
 362.50  8.4526E+002
 363.00  8.3323E+002
 363.50  8.2943E+002
 364.00  8.2627E+002
 364.50  8.3192E+002
 365.00  8.4012E+002
 365.50  8.4114E+002
 366.00  8.3478E+002
 366.50  8.2865E+002
 367.00  8.2321E+002
 367.50  8.2001E+002
 368.00  8.1729E+002
 368.50  8.2712E+002
 369.00  8.4171E+002
 369.50  8.4396E+002
 370.00  8.3831E+002
 370.50  8.3594E+002
 371.00  8.3408E+002
 371.50  8.3068E+002
 372.00  8.3346E+002
 372.50  8.4288E+002
 373.00  8.5354E+002
 373.50  8.5890E+002
 374.00  8.5420E+002
 374.50  8.4508E+002
 375.00  8.3903E+002
 375.50  8.3004E+002
 376.00  8.2160E+002
 376.50  8.2155E+002
 377.00  8.3015E+002
 377.50  8.3851E+002
 378.00  8.4487E+002
 378.50  8.4853E+002
 379.00  8.4438E+002
 379.50  8.3266E+002
 380.00  8.2552E+002
 380.50  8.2175E+002
 381.00  8.1987E+002
 381.50  8.3119E+002
 382.00  8.4633E+002
 382.50  8.5085E+002
 383.00  8.5232E+002
 383.50  8.4942E+002
 384.00  8.3831E+002
 384.50  8.2515E+002
 385.00  8.1384E+002
 385.50  8.0110E+002
 386.00  7.9462E+002
 386.50  7.8699E+002
 387.00  7.7983E+002
 387.50  7.8067E+002
 388.00  7.8495E+002
 388.50  7.8741E+002
 389.00  7.9318E+002
 389.50  7.9783E+002
 390.00  7.9865E+002
 390.50  8.0333E+002
 391.00  8.0266E+002
 391.50  8.0334E+002
 392.00  8.0501E+002
 392.50  8.0856E+002
 393.00  8.1099E+002
 393.50  8.2157E+002
 394.00  8.3648E+002
 394.50  8.4580E+002
 395.00  8.4454E+002
 395.50  8.4454E+002
 396.00  8.4548E+002
 396.50  8.4152E+002
 397.00  8.4709E+002
 397.50  8.5773E+002
 398.00  8.6240E+002
 398.50  8.6160E+002
 399.00  8.6117E+002
 399.50  8.6063E+002
 400.00  8.6555E+002
 400.50  8.7063E+002
 401.00  8.7250E+002
 401.50  8.7110E+002
 402.00  8.6587E+002
 402.50  8.5844E+002
 403.00  8.5300E+002
 403.50  8.4981E+002
 404.00  8.4813E+002
 404.50  8.5004E+002
 405.00  8.5448E+002
 405.50  8.5534E+002
 406.00  8.5133E+002
 406.50  8.4645E+002
 407.00  8.3880E+002
 407.50  8.2693E+002
 408.00  8.2075E+002
 408.50  8.2656E+002
 409.00  8.3701E+002
 409.50  8.4690E+002
 410.00  8.5354E+002
 410.50  8.5332E+002
 411.00  8.4439E+002
 411.50  8.3151E+002
 412.00  8.2302E+002
 412.50  8.2174E+002
 413.00  8.2473E+002
 413.50  8.3279E+002
 414.00  8.4367E+002
 414.50  8.4915E+002
 415.00  8.4784E+002
 415.50  8.4497E+002
 416.00  8.3795E+002
 416.50  8.2813E+002
 417.00  8.2101E+002
 417.50  8.1573E+002
 418.00  8.0880E+002
 418.50  8.0529E+002
 419.00  8.0555E+002
 419.50  8.0931E+002
 420.00  8.2117E+002
 420.50  8.3458E+002
 421.00  8.4292E+002
 421.50  8.4771E+002
 422.00  8.5011E+002
 422.50  8.4743E+002
 423.00  8.5057E+002
 423.50  8.6048E+002
 424.00  8.7071E+002
 424.50  8.8262E+002
 425.00  8.9757E+002
 425.50  9.0414E+002
 426.00  9.0696E+002
 426.50  9.0316E+002
 427.00  8.8883E+002
 427.50  8.6996E+002
 428.00  8.5059E+002
 428.50  8.3638E+002
 429.00  8.2990E+002
 429.50  8.2861E+002
 430.00  8.3450E+002
 430.50  8.4816E+002
 431.00  8.5443E+002
 431.50  8.5490E+002
 432.00  8.5192E+002
 432.50  8.4343E+002
 433.00  8.3454E+002
 433.50  8.2888E+002
 434.00  8.2685E+002
 434.50  8.3370E+002
 435.00  8.4350E+002
 435.50  8.4647E+002
 436.00  8.4608E+002
 436.50  8.4571E+002
 437.00  8.4232E+002
 437.50  8.4045E+002
 438.00  8.4236E+002
 438.50  8.4210E+002
 439.00  8.3848E+002
 439.50  8.3099E+002
 440.00  8.1773E+002
 440.50  8.0861E+002
 441.00  8.0825E+002
 441.50  8.1211E+002
 442.00  8.1679E+002
 442.50  8.2297E+002
 443.00  8.2838E+002
 443.50  8.3231E+002
 444.00  8.3066E+002
 444.50  8.2966E+002
 445.00  8.3112E+002
 445.50  8.2181E+002
 446.00  8.0694E+002
 446.50  7.9919E+002
 447.00  7.9884E+002
 447.50  7.9670E+002
 448.00  7.9800E+002
 448.50  7.9983E+002
 449.00  7.9281E+002
 449.50  7.8409E+002
 450.00  7.8105E+002
 450.50  7.8202E+002
 451.00  7.8540E+002
 451.50  7.9619E+002
 452.00  8.0860E+002
 452.50  8.1793E+002
 453.00  8.2737E+002
 453.50  8.3839E+002
 454.00  8.4662E+002
 454.50  8.5029E+002
 455.00  8.5494E+002
 455.50  8.6279E+002
 456.00  8.6645E+002
 456.50  8.6499E+002
 457.00  8.6180E+002
 457.50  8.5429E+002
 458.00  8.4286E+002
 458.50  8.4311E+002
 459.00  8.5815E+002
 459.50  8.7311E+002
 460.00  8.8559E+002
 460.50  8.9972E+002
 461.00  9.0375E+002
 461.50  8.9437E+002
 462.00  8.8404E+002
 462.50  8.7728E+002
 463.00  8.6667E+002
 463.50  8.5167E+002
 464.00  8.3847E+002
 464.50  8.2995E+002
 465.00  8.2347E+002
 465.50  8.2358E+002
 466.00  8.3016E+002
 466.50  8.3646E+002
 467.00  8.4012E+002
 467.50  8.4023E+002
 468.00  8.3939E+002
 468.50  8.3898E+002
 469.00  8.3951E+002
 469.50  8.4139E+002
 470.00  8.4274E+002
 470.50  8.4115E+002
 471.00  8.3709E+002
 471.50  8.3204E+002
 472.00  8.2600E+002
 472.50  8.1853E+002
 473.00  8.1137E+002
 473.50  8.0199E+002
 474.00  7.9440E+002
 474.50  7.9375E+002
 475.00  8.0289E+002
 475.50  8.1697E+002
 476.00  8.3359E+002
 476.50  8.4178E+002
 477.00  8.4294E+002
 477.50  8.4029E+002
 478.00  8.3121E+002
 478.50  8.1792E+002
 479.00  8.0589E+002
 479.50  7.9171E+002
 480.00  7.7873E+002
 480.50  7.7358E+002
 481.00  7.7341E+002
 481.50  7.7982E+002
 482.00  7.9392E+002
 482.50  8.0114E+002
 483.00  8.0311E+002
 483.50  8.0726E+002
 484.00  8.0712E+002
 484.50  8.0607E+002
 485.00  8.1617E+002
 485.50  8.2786E+002
 486.00  8.3837E+002
 486.50  8.4837E+002
 487.00  8.4950E+002
 487.50  8.5034E+002
 488.00  8.5674E+002
 488.50  8.6044E+002
 489.00  8.5775E+002
 489.50  8.5281E+002
 490.00  8.4802E+002
 490.50  8.4691E+002
 491.00  8.5009E+002
 491.50  8.5696E+002
 492.00  8.6409E+002
 492.50  8.6847E+002
 493.00  8.7244E+002
 493.50  8.7015E+002
 494.00  8.6060E+002
 494.50  8.4969E+002
 495.00  8.3102E+002
 495.50  8.1401E+002
 496.00  8.1542E+002
 496.50  8.2426E+002
 497.00  8.3023E+002
 497.50  8.3659E+002
 498.00  8.3719E+002
 498.50  8.3039E+002
 499.00  8.2051E+002
 499.50  8.1270E+002
 500.00  8.0821E+002
 500.50  8.1056E+002
 501.00  8.2009E+002
 501.50  8.2974E+002
 502.00  8.3974E+002
 502.50  8.4660E+002
 503.00  8.4879E+002
 503.50  8.5023E+002
 504.00  8.5040E+002
 504.50  8.4782E+002
 505.00  8.4591E+002
 505.50  8.3488E+002
 506.00  8.2051E+002
 506.50  8.1091E+002
 507.00  8.0149E+002
 507.50  7.9333E+002
 508.00  7.9520E+002
 508.50  8.0635E+002
 509.00  8.1535E+002
 509.50  8.2342E+002
 510.00  8.3479E+002
 510.50  8.4496E+002
 511.00  8.5117E+002
 511.50  8.5529E+002
 512.00  8.5496E+002
 512.50  8.5055E+002
 513.00  8.4823E+002
 513.50  8.5178E+002
 514.00  8.6122E+002
 514.50  8.7296E+002
 515.00  8.8057E+002
 515.50  8.8176E+002
 516.00  8.7413E+002
 516.50  8.6330E+002
 517.00  8.5898E+002
 517.50  8.5983E+002
 518.00  8.6248E+002
 518.50  8.6758E+002
 519.00  8.6867E+002
 519.50  8.6414E+002
 520.00  8.5617E+002
 520.50  8.5500E+002
 521.00  8.5716E+002
 521.50  8.5351E+002
 522.00  8.4678E+002
 522.50  8.4054E+002
 523.00  8.3388E+002
 523.50  8.3276E+002
 524.00  8.3599E+002
 524.50  8.3525E+002
 525.00  8.2998E+002
 525.50  8.2244E+002
 526.00  8.1365E+002
 526.50  8.1130E+002
 527.00  8.1900E+002
 527.50  8.3058E+002
 528.00  8.4381E+002
 528.50  8.5590E+002
 529.00  8.5958E+002
 529.50  8.5813E+002
 530.00  8.4669E+002
 530.50  8.3069E+002
 531.00  8.1678E+002
 531.50  8.0803E+002
 532.00  8.0939E+002
 532.50  8.2395E+002
 533.00  8.4248E+002
 533.50  8.5532E+002
 534.00  8.6311E+002
 534.50  8.6641E+002
 535.00  8.6329E+002
 535.50  8.5957E+002
 536.00  8.6073E+002
 536.50  8.6693E+002
 537.00  8.7023E+002
 537.50  8.7135E+002
 538.00  8.7359E+002
 538.50  8.6667E+002
 539.00  8.5238E+002
 539.50  8.3864E+002
 540.00  8.2750E+002
 540.50  8.2535E+002
 541.00  8.2660E+002
 541.50  8.2796E+002
 542.00  8.3000E+002
 542.50  8.2669E+002
 543.00  8.1830E+002
 543.50  8.2080E+002
 544.00  8.2584E+002
 544.50  8.3307E+002
 545.00  8.5039E+002
 545.50  8.6574E+002
 546.00  8.6729E+002
 546.50  8.6763E+002
 547.00  8.6484E+002
 547.50  8.5366E+002
 548.00  8.4828E+002
 548.50  8.4941E+002
 549.00  8.4261E+002
 549.50  8.3119E+002
 550.00  8.2771E+002
 550.50  8.3161E+002
 551.00  8.3549E+002
 551.50  8.4624E+002
 552.00  8.5705E+002
 552.50  8.5603E+002
 553.00  8.4711E+002
 553.50  8.3654E+002
 554.00  8.2527E+002
 554.50  8.1585E+002
 555.00  8.1460E+002
 555.50  8.2019E+002
 556.00  8.1943E+002
 556.50  8.1693E+002
 557.00  8.1013E+002
 557.50  7.9833E+002
 558.00  7.9023E+002
 558.50  7.9151E+002
 559.00  8.0158E+002
 559.50  8.1727E+002
 560.00  8.3378E+002
 560.50  8.5237E+002
 561.00  8.6296E+002
 561.50  8.5957E+002
 562.00  8.5540E+002
 562.50  8.4510E+002
 563.00  8.3228E+002
 563.50  8.2881E+002
 564.00  8.2711E+002
 564.50  8.2304E+002
 565.00  8.2387E+002
 565.50  8.2645E+002
 566.00  8.2763E+002
 566.50  8.3232E+002
 567.00  8.4027E+002
 567.50  8.4836E+002
 568.00  8.4668E+002
 568.50  8.4152E+002
 569.00  8.4795E+002
 569.50  8.5548E+002
 570.00  8.5980E+002
 570.50  8.7293E+002
 571.00  8.8180E+002
 571.50  8.7872E+002
 572.00  8.7757E+002
 572.50  8.7348E+002
 573.00  8.6057E+002
 573.50  8.5146E+002
 574.00  8.4657E+002
 574.50  8.4412E+002
 575.00  8.4854E+002
 575.50  8.5541E+002
 576.00  8.5613E+002
 576.50  8.4872E+002
 577.00  8.3987E+002
 577.50  8.3083E+002
 578.00  8.2505E+002
 578.50  8.2819E+002
 579.00  8.3284E+002
 579.50  8.3408E+002
 580.00  8.3145E+002
 580.50  8.2670E+002
 581.00  8.2388E+002
 581.50  8.2223E+002
 582.00  8.2455E+002
 582.50  8.3123E+002
 583.00  8.3224E+002
 583.50  8.2685E+002
 584.00  8.2136E+002
 584.50  8.1298E+002
 585.00  8.0490E+002
 585.50  8.0366E+002
 586.00  8.0835E+002
 586.50  8.1607E+002
 587.00  8.2276E+002
 587.50  8.2625E+002
 588.00  8.2941E+002
 588.50  8.3019E+002
 589.00  8.2263E+002
 589.50  8.1733E+002
 590.00  8.1743E+002
 590.50  8.1897E+002
 591.00  8.2202E+002
 591.50  8.2865E+002
 592.00  8.3454E+002
 592.50  8.3815E+002
 593.00  8.3706E+002
 593.50  8.3486E+002
 594.00  8.3837E+002
 594.50  8.4679E+002
 595.00  8.5484E+002
 595.50  8.6272E+002
 596.00  8.6365E+002
 596.50  8.5930E+002
 597.00  8.5298E+002
 597.50  8.4687E+002
 598.00  8.4670E+002
 598.50  8.4759E+002
 599.00  8.4329E+002
 599.50  8.3836E+002
 600.00  8.3549E+002
 600.50  8.3398E+002
 601.00  8.3520E+002
 601.50  8.3718E+002
 602.00  8.3459E+002
 602.50  8.2987E+002
 603.00  8.3301E+002
 603.50  8.3588E+002
 604.00  8.4168E+002
 604.50  8.5165E+002
 605.00  8.5921E+002
 605.50  8.5872E+002
 606.00  8.5768E+002
 606.50  8.5687E+002
 607.00  8.5231E+002
 607.50  8.5177E+002
 608.00  8.5157E+002
 608.50  8.5089E+002
 609.00  8.5094E+002
 609.50  8.4850E+002
 610.00  8.4756E+002
 610.50  8.4695E+002
 611.00  8.4440E+002
 611.50  8.4640E+002
 612.00  8.4441E+002
 612.50  8.4172E+002
 613.00  8.3230E+002
 613.50  8.1921E+002
 614.00  8.1360E+002
 614.50  8.1830E+002
 615.00  8.2809E+002
 615.50  8.3957E+002
 616.00  8.4856E+002
 616.50  8.5282E+002
 617.00  8.4820E+002
 617.50  8.4906E+002
 618.00  8.5395E+002
 618.50  8.5483E+002
 619.00  8.5039E+002
 619.50  8.4620E+002
 620.00  8.4555E+002
 620.50  8.4681E+002
 621.00  8.5173E+002
 621.50  8.5967E+002
 622.00  8.6336E+002
 622.50  8.6146E+002
 623.00  8.6307E+002
 623.50  8.7004E+002
 624.00  8.7721E+002
 624.50  8.8403E+002
 625.00  8.8557E+002
 625.50  8.8131E+002
 626.00  8.7496E+002
 626.50  8.6936E+002
 627.00  8.6727E+002
 627.50  8.7057E+002
 628.00  8.7134E+002
 628.50  8.6765E+002
 629.00  8.6446E+002
 629.50  8.5947E+002
 630.00  8.5027E+002
 630.50  8.4352E+002
 631.00  8.3932E+002
 631.50  8.3549E+002
 632.00  8.3566E+002
 632.50  8.3655E+002
 633.00  8.3870E+002
 633.50  8.4000E+002
 634.00  8.4417E+002
 634.50  8.5074E+002
 635.00  8.5338E+002
 635.50  8.5180E+002
 636.00  8.5272E+002
 636.50  8.4740E+002
 637.00  8.3734E+002
 637.50  8.3900E+002
 638.00  8.3995E+002
 638.50  8.3466E+002
 639.00  8.3845E+002
 639.50  8.4414E+002
 640.00  8.4976E+002
 640.50  8.5552E+002
 641.00  8.5499E+002
