" File: Users\LabUser\Documents\MonochromatorCal
"  SCOPE->  Wave:693.48nm  Pix:1050  Val:920.000  Time:1000ms  Avg:1  Sm:1  Sg:0  Tc:off  SNAP  Xt:3  Ch:1  Xtrig  
 191.00  9.3058E+002
 191.50  9.0200E+002
 192.00  9.0200E+002
 192.50  9.0107E+002
 193.00  9.0445E+002
 193.50  9.0102E+002
 194.00  8.9053E+002
 194.50  8.7113E+002
 195.00  8.7429E+002
 195.50  8.9467E+002
 196.00  9.1845E+002
 196.50  9.3537E+002
 197.00  9.3111E+002
 197.50  9.1658E+002
 198.00  9.2395E+002
 198.50  9.3521E+002
 199.00  9.3013E+002
 199.50  9.3200E+002
 200.00  9.2732E+002
 200.50  9.3135E+002
 201.00  9.2475E+002
 201.50  9.0967E+002
 202.00  9.0608E+002
 202.50  9.0525E+002
 203.00  9.0287E+002
 203.50  8.9783E+002
 204.00  8.9279E+002
 204.50  8.9019E+002
 205.00  8.8759E+002
 205.50  8.8857E+002
 206.00  8.9739E+002
 206.50  9.0945E+002
 207.00  9.1905E+002
 207.50  9.2954E+002
 208.00  9.4224E+002
 208.50  9.4562E+002
 209.00  9.4537E+002
 209.50  9.4374E+002
 210.00  9.3694E+002
 210.50  9.2509E+002
 211.00  9.1299E+002
 211.50  9.0172E+002
 212.00  8.9170E+002
 212.50  8.8495E+002
 213.00  8.7889E+002
 213.50  8.6879E+002
 214.00  8.5991E+002
 214.50  8.6070E+002
 215.00  8.6317E+002
 215.50  8.6599E+002
 216.00  8.7537E+002
 216.50  8.9127E+002
 217.00  9.0665E+002
 217.50  9.1946E+002
 218.00  9.3099E+002
 218.50  9.3947E+002
 219.00  9.3941E+002
 219.50  9.3123E+002
 220.00  9.2365E+002
 220.50  9.2042E+002
 221.00  9.1893E+002
 221.50  9.1921E+002
 222.00  9.1992E+002
 222.50  9.1778E+002
 223.00  9.0986E+002
 223.50  8.9298E+002
 224.00  8.8019E+002
 224.50  8.7679E+002
 225.00  8.7945E+002
 225.50  8.8446E+002
 226.00  8.9518E+002
 226.50  9.0362E+002
 227.00  9.1337E+002
 227.50  9.2219E+002
 228.00  9.2441E+002
 228.50  9.2439E+002
 229.00  9.2599E+002
 229.50  9.2715E+002
 230.00  9.2972E+002
 230.50  9.3584E+002
 231.00  9.3809E+002
 231.50  9.3076E+002
 232.00  9.1896E+002
 232.50  9.0524E+002
 233.00  8.9299E+002
 233.50  8.9053E+002
 234.00  8.9668E+002
 234.50  9.0954E+002
 235.00  9.2017E+002
 235.50  9.2078E+002
 236.00  9.1405E+002
 236.50  9.1120E+002
 237.00  9.0947E+002
 237.50  9.0305E+002
 238.00  8.9376E+002
 238.50  8.8767E+002
 239.00  8.8441E+002
 239.50  8.8043E+002
 240.00  8.8330E+002
 240.50  8.9906E+002
 241.00  9.1684E+002
 241.50  9.2427E+002
 242.00  9.2463E+002
 242.50  9.2185E+002
 243.00  9.0856E+002
 243.50  8.8926E+002
 244.00  8.7691E+002
 244.50  8.6840E+002
 245.00  8.6194E+002
 245.50  8.5657E+002
 246.00  8.5196E+002
 246.50  8.5773E+002
 247.00  8.7116E+002
 247.50  8.8118E+002
 248.00  8.8791E+002
 248.50  8.9876E+002
 249.00  9.0785E+002
 249.50  9.0562E+002
 250.00  9.0346E+002
 250.50  9.0855E+002
 251.00  9.0501E+002
 251.50  8.9499E+002
 252.00  8.9058E+002
 252.50  8.8790E+002
 253.00  8.8504E+002
 253.50  8.9364E+002
 254.00  9.0419E+002
 254.50  9.0523E+002
 255.00  9.0152E+002
 255.50  8.9458E+002
 256.00  8.8921E+002
 256.50  8.9084E+002
 257.00  8.9979E+002
 257.50  9.1352E+002
 258.00  9.2796E+002
 258.50  9.3595E+002
 259.00  9.3346E+002
 259.50  9.2314E+002
 260.00  9.0935E+002
 260.50  8.9519E+002
 261.00  8.8463E+002
 261.50  8.8342E+002
 262.00  8.8990E+002
 262.50  9.0585E+002
 263.00  9.2528E+002
 263.50  9.3518E+002
 264.00  9.3460E+002
 264.50  9.2813E+002
 265.00  9.1889E+002
 265.50  9.0725E+002
 266.00  9.0527E+002
 266.50  9.0676E+002
 267.00  9.0424E+002
 267.50  8.9720E+002
 268.00  8.8646E+002
 268.50  8.7605E+002
 269.00  8.7105E+002
 269.50  8.7392E+002
 270.00  8.8064E+002
 270.50  8.9167E+002
 271.00  9.0514E+002
 271.50  9.1369E+002
 272.00  9.1747E+002
 272.50  9.1449E+002
 273.00  9.0372E+002
 273.50  8.8868E+002
 274.00  8.7640E+002
 274.50  8.6603E+002
 275.00  8.6269E+002
 275.50  8.6788E+002
 276.00  8.7307E+002
 276.50  8.7846E+002
 277.00  8.8384E+002
 277.50  8.7882E+002
 278.00  8.6565E+002
 278.50  8.4832E+002
 279.00  8.3434E+002
 279.50  8.2782E+002
 280.00  8.2731E+002
 280.50  8.3686E+002
 281.00  8.5637E+002
 281.50  8.7384E+002
 282.00  8.8272E+002
 282.50  8.8626E+002
 283.00  8.8935E+002
 283.50  8.9276E+002
 284.00  8.9224E+002
 284.50  8.8502E+002
 285.00  8.7882E+002
 285.50  8.7963E+002
 286.00  8.7606E+002
 286.50  8.7004E+002
 287.00  8.7694E+002
 287.50  8.8908E+002
 288.00  8.9275E+002
 288.50  8.9584E+002
 289.00  9.0368E+002
 289.50  9.0794E+002
 290.00  9.1799E+002
 290.50  9.2785E+002
 291.00  9.2913E+002
 291.50  9.3243E+002
 292.00  9.3107E+002
 292.50  9.1648E+002
 293.00  8.9984E+002
 293.50  8.9333E+002
 294.00  8.9740E+002
 294.50  9.0440E+002
 295.00  9.1103E+002
 295.50  9.1678E+002
 296.00  9.1783E+002
 296.50  9.0866E+002
 297.00  8.9291E+002
 297.50  8.7944E+002
 298.00  8.7217E+002
 298.50  8.6737E+002
 299.00  8.6319E+002
 299.50  8.6447E+002
 300.00  8.7099E+002
 300.50  8.7713E+002
 301.00  8.8403E+002
 301.50  8.9373E+002
 302.00  9.0344E+002
 302.50  9.1336E+002
 303.00  9.2341E+002
 303.50  9.3073E+002
 304.00  9.3667E+002
 304.50  9.3476E+002
 305.00  9.2462E+002
 305.50  9.1425E+002
 306.00  9.0648E+002
 306.50  8.9948E+002
 307.00  8.9825E+002
 307.50  9.0324E+002
 308.00  9.0741E+002
 308.50  9.1308E+002
 309.00  9.1738E+002
 309.50  9.2461E+002
 310.00  9.3416E+002
 310.50  9.4208E+002
 311.00  9.4515E+002
 311.50  9.4415E+002
 312.00  9.3579E+002
 312.50  9.2662E+002
 313.00  9.2096E+002
 313.50  9.1517E+002
 314.00  9.1057E+002
 314.50  9.1183E+002
 315.00  9.1150E+002
 315.50  9.0583E+002
 316.00  9.0130E+002
 316.50  8.9830E+002
 317.00  8.9584E+002
 317.50  8.9608E+002
 318.00  8.9627E+002
 318.50  8.9543E+002
 319.00  8.9680E+002
 319.50  8.9779E+002
 320.00  9.0053E+002
 320.50  9.1594E+002
 321.00  9.3282E+002
 321.50  9.4024E+002
 322.00  9.4235E+002
 322.50  9.3697E+002
 323.00  9.1876E+002
 323.50  9.0346E+002
 324.00  8.9887E+002
 324.50  8.9447E+002
 325.00  8.9644E+002
 325.50  9.1060E+002
 326.00  9.2245E+002
 326.50  9.2314E+002
 327.00  9.2151E+002
 327.50  9.1641E+002
 328.00  9.0661E+002
 328.50  8.9834E+002
 329.00  8.9311E+002
 329.50  8.9077E+002
 330.00  8.9475E+002
 330.50  8.9078E+002
 331.00  8.8172E+002
 331.50  8.8091E+002
 332.00  8.8631E+002
 332.50  8.8772E+002
 333.00  8.9558E+002
 333.50  9.1298E+002
 334.00  9.2515E+002
 334.50  9.2567E+002
 335.00  9.2587E+002
 335.50  9.2279E+002
 336.00  9.0685E+002
 336.50  8.8944E+002
 337.00  8.8446E+002
 337.50  8.8163E+002
 338.00  8.7471E+002
 338.50  8.7000E+002
 339.00  8.6601E+002
 339.50  8.6505E+002
 340.00  8.7240E+002
 340.50  8.8095E+002
 341.00  8.8715E+002
 341.50  8.9693E+002
 342.00  9.0852E+002
 342.50  9.1489E+002
 343.00  9.3487E+002
 343.50  9.7850E+002
 344.00  1.0131E+003
 344.50  1.0206E+003
 345.00  1.0164E+003
 345.50  1.0016E+003
 346.00  9.6777E+002
 346.50  9.3663E+002
 347.00  9.2574E+002
 347.50  9.2448E+002
 348.00  9.2188E+002
 348.50  9.1825E+002
 349.00  9.1733E+002
 349.50  9.1695E+002
 350.00  9.1541E+002
 350.50  9.1766E+002
 351.00  9.2922E+002
 351.50  9.4662E+002
 352.00  9.5854E+002
 352.50  9.6019E+002
 353.00  9.5424E+002
 353.50  9.4579E+002
 354.00  9.3834E+002
 354.50  9.4290E+002
 355.00  9.5114E+002
 355.50  9.5489E+002
 356.00  9.5533E+002
 356.50  9.4928E+002
 357.00  9.3284E+002
 357.50  9.2238E+002
 358.00  9.1861E+002
 358.50  9.1451E+002
 359.00  9.1418E+002
 359.50  9.1466E+002
 360.00  9.1067E+002
 360.50  9.0579E+002
 361.00  9.0377E+002
 361.50  8.9892E+002
 362.00  8.9733E+002
 362.50  9.0247E+002
 363.00  9.0951E+002
 363.50  9.0454E+002
 364.00  9.0019E+002
 364.50  9.0215E+002
 365.00  9.0160E+002
 365.50  9.0217E+002
 366.00  9.0976E+002
 366.50  9.1140E+002
 367.00  9.0178E+002
 367.50  8.9166E+002
 368.00  8.8895E+002
 368.50  8.8388E+002
 369.00  8.7787E+002
 369.50  8.8936E+002
 370.00  9.1720E+002
 370.50  9.3255E+002
 371.00  9.3687E+002
 371.50  9.4457E+002
 372.00  9.3628E+002
 372.50  9.1078E+002
 373.00  8.9495E+002
 373.50  8.9267E+002
 374.00  8.8692E+002
 374.50  8.8343E+002
 375.00  8.8487E+002
 375.50  8.7802E+002
 376.00  8.6871E+002
 376.50  8.7481E+002
 377.00  8.8650E+002
 377.50  8.9242E+002
 378.00  9.0508E+002
 378.50  9.2052E+002
 379.00  9.2731E+002
 379.50  9.3324E+002
 380.00  9.3516E+002
 380.50  9.4314E+002
 381.00  9.6721E+002
 381.50  9.8402E+002
 382.00  9.8473E+002
 382.50  9.8928E+002
 383.00  9.8461E+002
 383.50  9.5981E+002
 384.00  9.3727E+002
 384.50  9.2839E+002
 385.00  9.2345E+002
 385.50  9.2494E+002
 386.00  9.3212E+002
 386.50  9.3480E+002
 387.00  9.4230E+002
 387.50  9.5010E+002
 388.00  9.4421E+002
 388.50  9.2341E+002
 389.00  9.0694E+002
 389.50  8.9572E+002
 390.00  8.8754E+002
 390.50  8.8293E+002
 391.00  8.8696E+002
 391.50  8.9388E+002
 392.00  8.9189E+002
 392.50  8.8454E+002
 393.00  8.8684E+002
 393.50  8.9613E+002
 394.00  8.9862E+002
 394.50  9.0048E+002
 395.00  9.0268E+002
 395.50  8.9688E+002
 396.00  8.8609E+002
 396.50  8.7664E+002
 397.00  8.6726E+002
 397.50  8.6277E+002
 398.00  8.6215E+002
 398.50  8.6533E+002
 399.00  8.7290E+002
 399.50  8.7544E+002
 400.00  8.7266E+002
 400.50  8.7094E+002
 401.00  8.6715E+002
 401.50  8.7112E+002
 402.00  8.8471E+002
 402.50  8.9607E+002
 403.00  8.9998E+002
 403.50  8.9784E+002
 404.00  8.8821E+002
 404.50  8.7980E+002
 405.00  8.8184E+002
 405.50  8.9073E+002
 406.00  9.0347E+002
 406.50  9.1449E+002
 407.00  9.1383E+002
 407.50  9.0225E+002
 408.00  8.9455E+002
 408.50  8.9496E+002
 409.00  8.9880E+002
 409.50  9.0935E+002
 410.00  9.2412E+002
 410.50  9.3322E+002
 411.00  9.3737E+002
 411.50  9.4163E+002
 412.00  9.4329E+002
 412.50  9.4182E+002
 413.00  9.3816E+002
 413.50  9.2944E+002
 414.00  9.1766E+002
 414.50  9.1185E+002
 415.00  9.1524E+002
 415.50  9.2458E+002
 416.00  9.3749E+002
 416.50  9.4768E+002
 417.00  9.4363E+002
 417.50  9.2555E+002
 418.00  9.0209E+002
 418.50  8.7598E+002
 419.00  8.5926E+002
 419.50  8.5890E+002
 420.00  8.6667E+002
 420.50  8.7994E+002
 421.00  8.9653E+002
 421.50  9.1213E+002
 422.00  9.2331E+002
 422.50  9.2410E+002
 423.00  9.1472E+002
 423.50  9.0813E+002
 424.00  8.9401E+002
 424.50  8.6866E+002
 425.00  8.5497E+002
 425.50  8.5341E+002
 426.00  8.4575E+002
 426.50  8.4193E+002
 427.00  8.5222E+002
 427.50  8.5974E+002
 428.00  8.5965E+002
 428.50  8.6741E+002
 429.00  8.8204E+002
 429.50  8.9900E+002
 430.00  9.1041E+002
 430.50  9.2137E+002
 431.00  9.3018E+002
 431.50  9.3265E+002
 432.00  9.3024E+002
 432.50  9.4118E+002
 433.00  9.5812E+002
 433.50  9.7519E+002
 434.00  9.9222E+002
 434.50  1.0025E+003
 435.00  1.0011E+003
 435.50  9.8747E+002
 436.00  9.6420E+002
 436.50  9.3755E+002
 437.00  9.1398E+002
 437.50  8.9911E+002
 438.00  8.9639E+002
 438.50  9.0293E+002
 439.00  9.1737E+002
 439.50  9.3161E+002
 440.00  9.4050E+002
 440.50  9.4531E+002
 441.00  9.4988E+002
 441.50  9.5286E+002
 442.00  9.5309E+002
 442.50  9.5187E+002
 443.00  9.5260E+002
 443.50  9.5245E+002
 444.00  9.5704E+002
 444.50  9.6754E+002
 445.00  9.7580E+002
 445.50  9.7640E+002
 446.00  9.7512E+002
 446.50  9.6411E+002
 447.00  9.5629E+002
 447.50  9.5434E+002
 448.00  9.4924E+002
 448.50  9.4541E+002
 449.00  9.5577E+002
 449.50  9.6863E+002
 450.00  9.7230E+002
 450.50  9.7653E+002
 451.00  9.8063E+002
 451.50  9.7184E+002
 452.00  9.5825E+002
 452.50  9.5408E+002
 453.00  9.5113E+002
 453.50  9.4484E+002
 454.00  9.3968E+002
 454.50  9.2979E+002
 455.00  9.2100E+002
 455.50  9.1823E+002
 456.00  9.0702E+002
 456.50  8.9643E+002
 457.00  9.0408E+002
 457.50  9.1160E+002
 458.00  9.1868E+002
 458.50  9.4580E+002
 459.00  9.7003E+002
 459.50  9.7410E+002
 460.00  9.7658E+002
 460.50  9.7528E+002
 461.00  9.6869E+002
 461.50  9.7654E+002
 462.00  1.0017E+003
 462.50  1.0287E+003
 463.00  1.0517E+003
 463.50  1.0595E+003
 464.00  1.0461E+003
 464.50  1.0390E+003
 465.00  1.0356E+003
 465.50  1.0224E+003
 466.00  1.0151E+003
 466.50  1.0139E+003
 467.00  9.9229E+002
 467.50  9.6833E+002
 468.00  9.6334E+002
 468.50  9.6723E+002
 469.00  9.7287E+002
 469.50  9.8272E+002
 470.00  9.9828E+002
 470.50  1.0123E+003
 471.00  1.0166E+003
 471.50  1.0170E+003
 472.00  1.0128E+003
 472.50  9.9905E+002
 473.00  9.9005E+002
 473.50  9.9381E+002
 474.00  1.0070E+003
 474.50  1.0271E+003
 475.00  1.0436E+003
 475.50  1.0475E+003
 476.00  1.0435E+003
 476.50  1.0339E+003
 477.00  1.0293E+003
 477.50  1.0354E+003
 478.00  1.0459E+003
 478.50  1.0517E+003
 479.00  1.0513E+003
 479.50  1.0445E+003
 480.00  1.0376E+003
 480.50  1.0370E+003
 481.00  1.0408E+003
 481.50  1.0549E+003
 482.00  1.0739E+003
 482.50  1.0780E+003
 483.00  1.0751E+003
 483.50  1.0843E+003
 484.00  1.0922E+003
 484.50  1.0971E+003
 485.00  1.1095E+003
 485.50  1.1249E+003
 486.00  1.1354E+003
 486.50  1.1444E+003
 487.00  1.1617E+003
 487.50  1.1786E+003
 488.00  1.1928E+003
 488.50  1.2087E+003
 489.00  1.2202E+003
 489.50  1.2231E+003
 490.00  1.2293E+003
 490.50  1.2392E+003
 491.00  1.2535E+003
 491.50  1.2754E+003
 492.00  1.3074E+003
 492.50  1.3484E+003
 493.00  1.4087E+003
 493.50  1.5058E+003
 494.00  1.6748E+003
 494.50  1.9732E+003
 495.00  2.4535E+003
 495.50  3.1386E+003
 496.00  4.0577E+003
 496.50  5.2173E+003
 497.00  6.5985E+003
 497.50  8.1607E+003
 498.00  9.8546E+003
 498.50  1.1618E+004
 499.00  1.3408E+004
 499.50  1.5182E+004
 500.00  1.6912E+004
 500.50  1.8596E+004
 501.00  2.0212E+004
 501.50  2.1693E+004
 502.00  2.2996E+004
 502.50  2.4043E+004
 503.00  2.4699E+004
 503.50  2.4808E+004
 504.00  2.4235E+004
 504.50  2.2929E+004
 505.00  2.0915E+004
 505.50  1.8364E+004
 506.00  1.5482E+004
 506.50  1.2509E+004
 507.00  9.6814E+003
 507.50  7.1992E+003
 508.00  5.1925E+003
 508.50  3.7358E+003
 509.00  2.7859E+003
 509.50  2.1986E+003
 510.00  1.8479E+003
 510.50  1.6425E+003
 511.00  1.5115E+003
 511.50  1.4217E+003
 512.00  1.3677E+003
 512.50  1.3309E+003
 513.00  1.3022E+003
 513.50  1.2868E+003
 514.00  1.2724E+003
 514.50  1.2525E+003
 515.00  1.2361E+003
 515.50  1.2161E+003
 516.00  1.1969E+003
 516.50  1.1925E+003
 517.00  1.2038E+003
 517.50  1.2173E+003
 518.00  1.2228E+003
 518.50  1.2185E+003
 519.00  1.2062E+003
 519.50  1.1842E+003
 520.00  1.1685E+003
 520.50  1.1600E+003
 521.00  1.1459E+003
 521.50  1.1329E+003
 522.00  1.1349E+003
 522.50  1.1322E+003
 523.00  1.1237E+003
 523.50  1.1233E+003
 524.00  1.1215E+003
 524.50  1.1093E+003
 525.00  1.0978E+003
 525.50  1.0917E+003
 526.00  1.0767E+003
 526.50  1.0564E+003
 527.00  1.0741E+003
 527.50  1.1107E+003
 528.00  1.1217E+003
 528.50  1.1275E+003
 529.00  1.1283E+003
 529.50  1.0880E+003
 530.00  1.0508E+003
 530.50  1.0436E+003
 531.00  1.0459E+003
 531.50  1.0539E+003
 532.00  1.0549E+003
 532.50  1.0430E+003
 533.00  1.0296E+003
 533.50  1.0142E+003
 534.00  9.9859E+002
 534.50  9.9484E+002
 535.00  9.9340E+002
 535.50  9.8105E+002
 536.00  9.7027E+002
 536.50  9.6416E+002
 537.00  9.6266E+002
 537.50  9.6681E+002
 538.00  9.6366E+002
 538.50  9.5318E+002
 539.00  9.3902E+002
 539.50  9.2431E+002
 540.00  9.1511E+002
 540.50  9.2091E+002
 541.00  9.4006E+002
 541.50  9.5576E+002
 542.00  9.6052E+002
 542.50  9.5983E+002
 543.00  9.5328E+002
 543.50  9.4695E+002
 544.00  9.4713E+002
 544.50  9.5945E+002
 545.00  9.7287E+002
 545.50  9.7031E+002
 546.00  9.5783E+002
 546.50  9.4757E+002
 547.00  9.4005E+002
 547.50  9.4134E+002
 548.00  9.5531E+002
 548.50  9.7052E+002
 549.00  9.7549E+002
 549.50  9.7263E+002
 550.00  9.6848E+002
 550.50  9.6096E+002
 551.00  9.5471E+002
 551.50  9.5188E+002
 552.00  9.5482E+002
 552.50  9.5986E+002
 553.00  9.6583E+002
 553.50  9.6533E+002
 554.00  9.5883E+002
 554.50  9.4974E+002
 555.00  9.3818E+002
 555.50  9.3172E+002
 556.00  9.4440E+002
 556.50  9.5745E+002
 557.00  9.6407E+002
 557.50  9.6478E+002
 558.00  9.6223E+002
 558.50  9.6543E+002
 559.00  9.7656E+002
 559.50  9.8925E+002
 560.00  9.9824E+002
 560.50  9.9077E+002
 561.00  9.7219E+002
 561.50  9.6015E+002
 562.00  9.5388E+002
 562.50  9.5119E+002
 563.00  9.5490E+002
 563.50  9.5971E+002
 564.00  9.5445E+002
 564.50  9.4421E+002
 565.00  9.3307E+002
 565.50  9.1568E+002
 566.00  8.9781E+002
 566.50  8.8867E+002
 567.00  8.8340E+002
 567.50  8.9747E+002
 568.00  9.1253E+002
 568.50  9.1851E+002
 569.00  9.3049E+002
 569.50  9.3358E+002
 570.00  9.2264E+002
 570.50  9.1732E+002
 571.00  9.1248E+002
 571.50  9.0139E+002
 572.00  8.9539E+002
 572.50  9.0023E+002
 573.00  9.0888E+002
 573.50  9.2134E+002
 574.00  9.3912E+002
 574.50  9.5124E+002
 575.00  9.4804E+002
 575.50  9.3650E+002
 576.00  9.2488E+002
 576.50  9.1826E+002
 577.00  9.1746E+002
 577.50  9.2426E+002
 578.00  9.3373E+002
 578.50  9.3420E+002
 579.00  9.3487E+002
 579.50  9.3806E+002
 580.00  9.3084E+002
 580.50  9.2630E+002
 581.00  9.3339E+002
 581.50  9.3583E+002
 582.00  9.3675E+002
 582.50  9.4091E+002
 583.00  9.3465E+002
 583.50  9.2072E+002
 584.00  9.0957E+002
 584.50  9.0168E+002
 585.00  8.9737E+002
 585.50  9.0654E+002
 586.00  9.1919E+002
 586.50  9.3102E+002
 587.00  9.4540E+002
 587.50  9.5026E+002
 588.00  9.3720E+002
 588.50  9.2320E+002
 589.00  9.1753E+002
 589.50  9.2320E+002
 590.00  9.2809E+002
 590.50  9.2612E+002
 591.00  9.1500E+002
 591.50  8.9031E+002
 592.00  8.6993E+002
 592.50  8.6683E+002
 593.00  8.6998E+002
 593.50  8.7564E+002
 594.00  8.8227E+002
 594.50  8.8053E+002
 595.00  8.8320E+002
 595.50  8.9587E+002
 596.00  9.0651E+002
 596.50  9.0999E+002
 597.00  9.1109E+002
 597.50  9.0997E+002
 598.00  9.0655E+002
 598.50  9.0580E+002
 599.00  9.0739E+002
 599.50  9.0947E+002
 600.00  9.1076E+002
 600.50  9.1048E+002
 601.00  9.1193E+002
 601.50  9.1329E+002
 602.00  9.1957E+002
 602.50  9.2719E+002
 603.00  9.2591E+002
 603.50  9.2175E+002
 604.00  9.1942E+002
 604.50  9.0906E+002
 605.00  9.0133E+002
 605.50  8.9862E+002
 606.00  8.9496E+002
 606.50  8.9093E+002
 607.00  8.9884E+002
 607.50  9.1230E+002
 608.00  9.2230E+002
 608.50  9.2409E+002
 609.00  9.1494E+002
 609.50  9.0093E+002
 610.00  8.9543E+002
 610.50  9.0152E+002
 611.00  9.2259E+002
 611.50  9.3934E+002
 612.00  9.4400E+002
 612.50  9.5257E+002
 613.00  9.4367E+002
 613.50  9.2654E+002
 614.00  9.2262E+002
 614.50  9.2397E+002
 615.00  9.2788E+002
 615.50  9.3066E+002
 616.00  9.3365E+002
 616.50  9.3477E+002
 617.00  9.1957E+002
 617.50  9.0954E+002
 618.00  9.1126E+002
 618.50  9.1124E+002
 619.00  9.0810E+002
 619.50  8.9956E+002
 620.00  8.9380E+002
 620.50  8.9526E+002
 621.00  8.9678E+002
 621.50  9.0974E+002
 622.00  9.2414E+002
 622.50  9.2619E+002
 623.00  9.2673E+002
 623.50  9.2823E+002
 624.00  9.2171E+002
 624.50  9.1916E+002
 625.00  9.2143E+002
 625.50  9.2399E+002
 626.00  9.2861E+002
 626.50  9.3389E+002
 627.00  9.3378E+002
 627.50  9.3027E+002
 628.00  9.2924E+002
 628.50  9.3675E+002
 629.00  9.4345E+002
 629.50  9.3923E+002
 630.00  9.4461E+002
 630.50  9.7030E+002
 631.00  9.8814E+002
 631.50  9.9433E+002
 632.00  9.9285E+002
 632.50  9.6650E+002
 633.00  9.3024E+002
 633.50  9.1261E+002
 634.00  9.1066E+002
 634.50  9.2448E+002
 635.00  9.3873E+002
 635.50  9.4978E+002
 636.00  9.5672E+002
 636.50  9.4856E+002
 637.00  9.3069E+002
 637.50  9.1919E+002
 638.00  9.1156E+002
 638.50  9.0602E+002
 639.00  9.0827E+002
 639.50  9.2506E+002
 640.00  9.3087E+002
 640.50  9.2923E+002
 641.00  9.3437E+002
