" File: Users\LabUser\Documents\MonochromatorCal
"  SCOPE->  Wave:693.48nm  Pix:1050  Val:892.200  Time:1000ms  Avg:1  Sm:1  Sg:0  Tc:off  SNAP  Xt:3  Ch:1  Xtrig  
 191.00  9.4288E+002
 191.50  9.6780E+002
 192.00  9.6501E+002
 192.50  9.5942E+002
 193.00  9.6331E+002
 193.50  9.6639E+002
 194.00  9.5171E+002
 194.50  9.3608E+002
 195.00  9.2803E+002
 195.50  9.3075E+002
 196.00  9.4100E+002
 196.50  9.5511E+002
 197.00  9.6731E+002
 197.50  9.7263E+002
 198.00  9.7272E+002
 198.50  9.3421E+002
 199.00  8.7528E+002
 199.50  8.6500E+002
 200.00  8.7716E+002
 200.50  8.8583E+002
 201.00  8.9586E+002
 201.50  9.0318E+002
 202.00  8.9932E+002
 202.50  9.0345E+002
 203.00  9.1130E+002
 203.50  9.1449E+002
 204.00  9.1589E+002
 204.50  9.1854E+002
 205.00  9.1990E+002
 205.50  9.1875E+002
 206.00  9.2295E+002
 206.50  9.3550E+002
 207.00  9.4169E+002
 207.50  9.4375E+002
 208.00  9.4398E+002
 208.50  9.3667E+002
 209.00  9.2734E+002
 209.50  9.2505E+002
 210.00  9.2540E+002
 210.50  9.2681E+002
 211.00  9.3531E+002
 211.50  9.4806E+002
 212.00  9.5598E+002
 212.50  9.5702E+002
 213.00  9.5534E+002
 213.50  9.5209E+002
 214.00  9.4571E+002
 214.50  9.4115E+002
 215.00  9.3724E+002
 215.50  9.2803E+002
 216.00  9.1432E+002
 216.50  9.0866E+002
 217.00  9.0898E+002
 217.50  9.0950E+002
 218.00  9.1170E+002
 218.50  9.1439E+002
 219.00  9.1319E+002
 219.50  9.0700E+002
 220.00  9.0243E+002
 220.50  9.0387E+002
 221.00  9.0883E+002
 221.50  9.1463E+002
 222.00  9.1972E+002
 222.50  9.2323E+002
 223.00  9.2174E+002
 223.50  9.1649E+002
 224.00  9.1160E+002
 224.50  9.1046E+002
 225.00  9.0489E+002
 225.50  8.9787E+002
 226.00  8.9163E+002
 226.50  8.8775E+002
 227.00  8.8906E+002
 227.50  8.9847E+002
 228.00  9.1120E+002
 228.50  9.2455E+002
 229.00  9.3429E+002
 229.50  9.3635E+002
 230.00  9.3619E+002
 230.50  9.4070E+002
 231.00  9.4562E+002
 231.50  9.4273E+002
 232.00  9.3782E+002
 232.50  9.3209E+002
 233.00  9.1412E+002
 233.50  8.9690E+002
 234.00  8.8327E+002
 234.50  8.7775E+002
 235.00  8.7589E+002
 235.50  8.7840E+002
 236.00  8.7844E+002
 236.50  8.8620E+002
 237.00  9.0025E+002
 237.50  9.0437E+002
 238.00  8.9509E+002
 238.50  8.8529E+002
 239.00  8.8129E+002
 239.50  8.8048E+002
 240.00  8.8908E+002
 240.50  9.1228E+002
 241.00  9.3730E+002
 241.50  9.5614E+002
 242.00  9.6360E+002
 242.50  9.6350E+002
 243.00  9.5438E+002
 243.50  9.3744E+002
 244.00  9.1913E+002
 244.50  9.0863E+002
 245.00  9.0027E+002
 245.50  8.9323E+002
 246.00  8.9807E+002
 246.50  9.1370E+002
 247.00  9.2837E+002
 247.50  9.3585E+002
 248.00  9.3984E+002
 248.50  9.4195E+002
 249.00  9.3984E+002
 249.50  9.3642E+002
 250.00  9.3625E+002
 250.50  9.3773E+002
 251.00  9.3635E+002
 251.50  9.3316E+002
 252.00  9.2466E+002
 252.50  9.0891E+002
 253.00  9.0053E+002
 253.50  8.9777E+002
 254.00  8.9136E+002
 254.50  8.8333E+002
 255.00  8.8616E+002
 255.50  8.9367E+002
 256.00  8.9933E+002
 256.50  9.0635E+002
 257.00  9.1855E+002
 257.50  9.2691E+002
 258.00  9.2943E+002
 258.50  9.3384E+002
 259.00  9.3670E+002
 259.50  9.2900E+002
 260.00  9.1553E+002
 260.50  9.0335E+002
 261.00  8.8843E+002
 261.50  8.7469E+002
 262.00  8.7557E+002
 262.50  8.9220E+002
 263.00  9.1432E+002
 263.50  9.2698E+002
 264.00  9.2660E+002
 264.50  9.2336E+002
 265.00  9.1611E+002
 265.50  9.0240E+002
 266.00  9.0304E+002
 266.50  9.1814E+002
 267.00  9.2841E+002
 267.50  9.3367E+002
 268.00  9.3710E+002
 268.50  9.3095E+002
 269.00  9.1700E+002
 269.50  9.0723E+002
 270.00  9.0176E+002
 270.50  8.9851E+002
 271.00  9.0258E+002
 271.50  9.1214E+002
 272.00  9.1840E+002
 272.50  9.1909E+002
 273.00  9.1955E+002
 273.50  9.1592E+002
 274.00  9.0331E+002
 274.50  8.9573E+002
 275.00  9.0118E+002
 275.50  9.0704E+002
 276.00  9.0800E+002
 276.50  9.2261E+002
 277.00  9.4115E+002
 277.50  9.4563E+002
 278.00  9.5081E+002
 278.50  9.5653E+002
 279.00  9.5008E+002
 279.50  9.3756E+002
 280.00  9.3060E+002
 280.50  9.2208E+002
 281.00  9.1961E+002
 281.50  9.2689E+002
 282.00  9.3207E+002
 282.50  9.2903E+002
 283.00  9.2375E+002
 283.50  9.1898E+002
 284.00  9.1530E+002
 284.50  9.1688E+002
 285.00  9.2218E+002
 285.50  9.2600E+002
 286.00  9.2742E+002
 286.50  9.2688E+002
 287.00  9.2926E+002
 287.50  9.3372E+002
 288.00  9.3971E+002
 288.50  9.4312E+002
 289.00  9.4416E+002
 289.50  9.4378E+002
 290.00  9.4919E+002
 290.50  9.4959E+002
 291.00  9.4625E+002
 291.50  9.4816E+002
 292.00  9.4148E+002
 292.50  9.1842E+002
 293.00  8.9704E+002
 293.50  8.9311E+002
 294.00  8.9555E+002
 294.50  8.9865E+002
 295.00  9.0457E+002
 295.50  9.1288E+002
 296.00  9.1656E+002
 296.50  9.0942E+002
 297.00  8.9549E+002
 297.50  8.8449E+002
 298.00  8.7974E+002
 298.50  8.7516E+002
 299.00  8.6753E+002
 299.50  8.6241E+002
 300.00  8.6383E+002
 300.50  8.6660E+002
 301.00  8.6561E+002
 301.50  8.6957E+002
 302.00  8.7899E+002
 302.50  8.8734E+002
 303.00  8.8901E+002
 303.50  8.9121E+002
 304.00  8.9337E+002
 304.50  8.9310E+002
 305.00  8.9263E+002
 305.50  8.9874E+002
 306.00  9.1056E+002
 306.50  9.1989E+002
 307.00  9.2923E+002
 307.50  9.3744E+002
 308.00  9.3492E+002
 308.50  9.2545E+002
 309.00  9.1430E+002
 309.50  9.1128E+002
 310.00  9.2044E+002
 310.50  9.3720E+002
 311.00  9.5487E+002
 311.50  9.6706E+002
 312.00  9.7139E+002
 312.50  9.6958E+002
 313.00  9.6737E+002
 313.50  9.6842E+002
 314.00  9.7513E+002
 314.50  9.8255E+002
 315.00  9.8838E+002
 315.50  9.9383E+002
 316.00  9.9331E+002
 316.50  9.8355E+002
 317.00  9.7141E+002
 317.50  9.5952E+002
 318.00  9.4436E+002
 318.50  9.3163E+002
 319.00  9.2751E+002
 319.50  9.2525E+002
 320.00  9.2324E+002
 320.50  9.2902E+002
 321.00  9.3384E+002
 321.50  9.2861E+002
 322.00  9.2794E+002
 322.50  9.3445E+002
 323.00  9.2410E+002
 323.50  9.0383E+002
 324.00  8.9883E+002
 324.50  8.9774E+002
 325.00  8.8848E+002
 325.50  8.9026E+002
 326.00  9.0304E+002
 326.50  9.0675E+002
 327.00  9.0035E+002
 327.50  8.9780E+002
 328.00  8.8938E+002
 328.50  8.8057E+002
 329.00  8.6234E+002
 329.50  8.4646E+002
 330.00  8.3996E+002
 330.50  8.3463E+002
 331.00  8.3054E+002
 331.50  8.4271E+002
 332.00  8.6475E+002
 332.50  8.7448E+002
 333.00  8.7818E+002
 333.50  8.8206E+002
 334.00  8.8543E+002
 334.50  8.8486E+002
 335.00  8.8672E+002
 335.50  8.9696E+002
 336.00  9.1133E+002
 336.50  9.2588E+002
 337.00  9.3694E+002
 337.50  9.4046E+002
 338.00  9.2814E+002
 338.50  9.0288E+002
 339.00  8.7759E+002
 339.50  8.6271E+002
 340.00  8.6176E+002
 340.50  8.7464E+002
 341.00  8.9432E+002
 341.50  9.1273E+002
 342.00  9.2908E+002
 342.50  9.4008E+002
 343.00  9.6052E+002
 343.50  1.0025E+003
 344.00  1.0364E+003
 344.50  1.0446E+003
 345.00  1.0443E+003
 345.50  1.0306E+003
 346.00  9.9097E+002
 346.50  9.5418E+002
 347.00  9.4035E+002
 347.50  9.3793E+002
 348.00  9.3809E+002
 348.50  9.3839E+002
 349.00  9.3820E+002
 349.50  9.3744E+002
 350.00  9.3087E+002
 350.50  9.2120E+002
 351.00  9.2300E+002
 351.50  9.3310E+002
 352.00  9.3922E+002
 352.50  9.4110E+002
 353.00  9.4420E+002
 353.50  9.4037E+002
 354.00  9.3256E+002
 354.50  9.2490E+002
 355.00  9.1146E+002
 355.50  8.9809E+002
 356.00  8.9372E+002
 356.50  8.9348E+002
 357.00  8.9463E+002
 357.50  8.9964E+002
 358.00  9.0613E+002
 358.50  9.0861E+002
 359.00  9.0649E+002
 359.50  8.9977E+002
 360.00  8.9693E+002
 360.50  8.9345E+002
 361.00  8.8011E+002
 361.50  8.6949E+002
 362.00  8.7053E+002
 362.50  8.7343E+002
 363.00  8.7636E+002
 363.50  8.8669E+002
 364.00  9.0327E+002
 364.50  9.2427E+002
 365.00  9.3933E+002
 365.50  9.4875E+002
 366.00  9.5558E+002
 366.50  9.5167E+002
 367.00  9.3707E+002
 367.50  9.2526E+002
 368.00  9.2259E+002
 368.50  9.1850E+002
 369.00  9.1673E+002
 369.50  9.2469E+002
 370.00  9.4611E+002
 370.50  9.5933E+002
 371.00  9.6306E+002
 371.50  9.6472E+002
 372.00  9.6151E+002
 372.50  9.4394E+002
 373.00  9.2659E+002
 373.50  9.2601E+002
 374.00  9.2628E+002
 374.50  9.2103E+002
 375.00  9.2257E+002
 375.50  9.3117E+002
 376.00  9.2966E+002
 376.50  9.3310E+002
 377.00  9.3868E+002
 377.50  9.3176E+002
 378.00  9.2974E+002
 378.50  9.3721E+002
 379.00  9.3762E+002
 379.50  9.3881E+002
 380.00  9.4931E+002
 380.50  9.5462E+002
 381.00  9.6440E+002
 381.50  9.7269E+002
 382.00  9.6839E+002
 382.50  9.6088E+002
 383.00  9.5669E+002
 383.50  9.4679E+002
 384.00  9.3503E+002
 384.50  9.3051E+002
 385.00  9.2810E+002
 385.50  9.2132E+002
 386.00  9.1972E+002
 386.50  9.2209E+002
 387.00  9.2367E+002
 387.50  9.2463E+002
 388.00  9.2069E+002
 388.50  9.0088E+002
 389.00  8.8312E+002
 389.50  8.7670E+002
 390.00  8.7090E+002
 390.50  8.7040E+002
 391.00  8.7690E+002
 391.50  8.8326E+002
 392.00  9.0004E+002
 392.50  9.1962E+002
 393.00  9.2975E+002
 393.50  9.3587E+002
 394.00  9.3843E+002
 394.50  9.2265E+002
 395.00  9.0196E+002
 395.50  8.9078E+002
 396.00  8.7886E+002
 396.50  8.6631E+002
 397.00  8.5852E+002
 397.50  8.6158E+002
 398.00  8.7021E+002
 398.50  8.7945E+002
 399.00  8.8931E+002
 399.50  9.0019E+002
 400.00  9.0150E+002
 400.50  8.9436E+002
 401.00  8.9719E+002
 401.50  9.1001E+002
 402.00  9.1751E+002
 402.50  9.2423E+002
 403.00  9.3399E+002
 403.50  9.3439E+002
 404.00  9.2332E+002
 404.50  9.1712E+002
 405.00  9.2076E+002
 405.50  9.2483E+002
 406.00  9.2745E+002
 406.50  9.3127E+002
 407.00  9.3417E+002
 407.50  9.3636E+002
 408.00  9.3755E+002
 408.50  9.3644E+002
 409.00  9.3768E+002
 409.50  9.4258E+002
 410.00  9.4342E+002
 410.50  9.4170E+002
 411.00  9.4377E+002
 411.50  9.4215E+002
 412.00  9.2933E+002
 412.50  9.1405E+002
 413.00  9.0402E+002
 413.50  8.9709E+002
 414.00  8.9463E+002
 414.50  9.0291E+002
 415.00  9.1685E+002
 415.50  9.2647E+002
 416.00  9.3042E+002
 416.50  9.2962E+002
 417.00  9.1770E+002
 417.50  8.9950E+002
 418.00  8.9337E+002
 418.50  8.9480E+002
 419.00  8.9093E+002
 419.50  8.9276E+002
 420.00  8.9489E+002
 420.50  8.8178E+002
 421.00  8.7530E+002
 421.50  8.9114E+002
 422.00  9.0243E+002
 422.50  9.0432E+002
 423.00  9.0494E+002
 423.50  8.9771E+002
 424.00  8.8620E+002
 424.50  8.8179E+002
 425.00  8.8840E+002
 425.50  9.0168E+002
 426.00  9.1004E+002
 426.50  9.1346E+002
 427.00  9.2167E+002
 427.50  9.3001E+002
 428.00  9.2988E+002
 428.50  9.2657E+002
 429.00  9.2400E+002
 429.50  9.1839E+002
 430.00  9.1648E+002
 430.50  9.2482E+002
 431.00  9.3550E+002
 431.50  9.3625E+002
 432.00  9.3400E+002
 432.50  9.3524E+002
 433.00  9.3414E+002
 433.50  9.3766E+002
 434.00  9.4805E+002
 434.50  9.4994E+002
 435.00  9.4314E+002
 435.50  9.3667E+002
 436.00  9.2715E+002
 436.50  9.1637E+002
 437.00  9.1240E+002
 437.50  9.1251E+002
 438.00  9.1203E+002
 438.50  9.1196E+002
 439.00  9.1480E+002
 439.50  9.2014E+002
 440.00  9.2583E+002
 440.50  9.3137E+002
 441.00  9.3982E+002
 441.50  9.4315E+002
 442.00  9.3045E+002
 442.50  9.1194E+002
 443.00  8.9554E+002
 443.50  8.7901E+002
 444.00  8.7216E+002
 444.50  8.7804E+002
 445.00  8.8619E+002
 445.50  8.9110E+002
 446.00  8.9807E+002
 446.50  9.0885E+002
 447.00  9.2179E+002
 447.50  9.3659E+002
 448.00  9.4463E+002
 448.50  9.4994E+002
 449.00  9.5586E+002
 449.50  9.5860E+002
 450.00  9.5535E+002
 450.50  9.5690E+002
 451.00  9.5416E+002
 451.50  9.4109E+002
 452.00  9.3238E+002
 452.50  9.2880E+002
 453.00  9.2174E+002
 453.50  9.1539E+002
 454.00  9.0735E+002
 454.50  8.9144E+002
 455.00  8.8320E+002
 455.50  8.9045E+002
 456.00  9.0043E+002
 456.50  9.1777E+002
 457.00  9.4624E+002
 457.50  9.6556E+002
 458.00  9.7416E+002
 458.50  9.8175E+002
 459.00  9.7881E+002
 459.50  9.6499E+002
 460.00  9.5863E+002
 460.50  9.5592E+002
 461.00  9.7178E+002
 461.50  9.9867E+002
 462.00  1.0205E+003
 462.50  1.0380E+003
 463.00  1.0398E+003
 463.50  1.0103E+003
 464.00  9.7969E+002
 464.50  9.7537E+002
 465.00  9.7043E+002
 465.50  9.6478E+002
 466.00  9.7025E+002
 466.50  9.7694E+002
 467.00  9.6475E+002
 467.50  9.4349E+002
 468.00  9.2990E+002
 468.50  9.2090E+002
 469.00  9.0465E+002
 469.50  8.9173E+002
 470.00  8.8524E+002
 470.50  8.8169E+002
 471.00  8.7784E+002
 471.50  8.7601E+002
 472.00  8.7913E+002
 472.50  8.8960E+002
 473.00  8.9815E+002
 473.50  9.0780E+002
 474.00  9.1939E+002
 474.50  9.2642E+002
 475.00  9.2673E+002
 475.50  9.2398E+002
 476.00  9.2527E+002
 476.50  9.2594E+002
 477.00  9.2986E+002
 477.50  9.3933E+002
 478.00  9.4210E+002
 478.50  9.3744E+002
 479.00  9.3030E+002
 479.50  9.2084E+002
 480.00  9.1944E+002
 480.50  9.3014E+002
 481.00  9.4311E+002
 481.50  9.5474E+002
 482.00  9.6540E+002
 482.50  9.6258E+002
 483.00  9.4967E+002
 483.50  9.4563E+002
 484.00  9.4416E+002
 484.50  9.4307E+002
 485.00  9.4476E+002
 485.50  9.4138E+002
 486.00  9.3303E+002
 486.50  9.3424E+002
 487.00  9.4346E+002
 487.50  9.6371E+002
 488.00  9.8665E+002
 488.50  9.9800E+002
 489.00  9.8892E+002
 489.50  9.6800E+002
 490.00  9.4776E+002
 490.50  9.3248E+002
 491.00  9.3043E+002
 491.50  9.4567E+002
 492.00  9.6356E+002
 492.50  9.7292E+002
 493.00  9.8449E+002
 493.50  9.9621E+002
 494.00  9.9716E+002
 494.50  1.0105E+003
 495.00  1.0501E+003
 495.50  1.0992E+003
 496.00  1.1823E+003
 496.50  1.3377E+003
 497.00  1.5651E+003
 497.50  1.8821E+003
 498.00  2.3105E+003
 498.50  2.8392E+003
 499.00  3.4208E+003
 499.50  3.9761E+003
 500.00  4.4268E+003
 500.50  4.7003E+003
 501.00  4.7436E+003
 501.50  4.5551E+003
 502.00  4.1780E+003
 502.50  3.6671E+003
 503.00  3.0896E+003
 503.50  2.5242E+003
 504.00  2.0387E+003
 504.50  1.6636E+003
 505.00  1.4068E+003
 505.50  1.2573E+003
 506.00  1.1694E+003
 506.50  1.1070E+003
 507.00  1.0701E+003
 507.50  1.0478E+003
 508.00  1.0262E+003
 508.50  1.0104E+003
 509.00  9.9718E+002
 509.50  9.8087E+002
 510.00  9.6772E+002
 510.50  9.6530E+002
 511.00  9.7250E+002
 511.50  9.7994E+002
 512.00  9.9001E+002
 512.50  9.9971E+002
 513.00  9.9568E+002
 513.50  9.8624E+002
 514.00  9.8248E+002
 514.50  9.7781E+002
 515.00  9.6512E+002
 515.50  9.5271E+002
 516.00  9.3941E+002
 516.50  9.2699E+002
 517.00  9.2727E+002
 517.50  9.4027E+002
 518.00  9.5712E+002
 518.50  9.7513E+002
 519.00  9.8768E+002
 519.50  9.8215E+002
 520.00  9.6652E+002
 520.50  9.5466E+002
 521.00  9.4340E+002
 521.50  9.4593E+002
 522.00  9.6767E+002
 522.50  9.8723E+002
 523.00  9.9497E+002
 523.50  1.0003E+003
 524.00  9.9320E+002
 524.50  9.7977E+002
 525.00  9.7360E+002
 525.50  9.7500E+002
 526.00  9.7340E+002
 526.50  9.6983E+002
 527.00  9.8548E+002
 527.50  1.0130E+003
 528.00  1.0174E+003
 528.50  1.0094E+003
 529.00  9.9807E+002
 529.50  9.6836E+002
 530.00  9.3837E+002
 530.50  9.2870E+002
 531.00  9.2812E+002
 531.50  9.2726E+002
 532.00  9.2252E+002
 532.50  9.1707E+002
 533.00  9.1055E+002
 533.50  9.0288E+002
 534.00  8.9510E+002
 534.50  8.8465E+002
 535.00  8.8155E+002
 535.50  8.8975E+002
 536.00  8.9496E+002
 536.50  8.9376E+002
 537.00  9.0245E+002
 537.50  9.0861E+002
 538.00  9.0806E+002
 538.50  9.1057E+002
 539.00  9.1422E+002
 539.50  9.1231E+002
 540.00  9.1116E+002
 540.50  9.1925E+002
 541.00  9.3216E+002
 541.50  9.3619E+002
 542.00  9.3532E+002
 542.50  9.3637E+002
 543.00  9.2643E+002
 543.50  9.2055E+002
 544.00  9.3057E+002
 544.50  9.3962E+002
 545.00  9.4329E+002
 545.50  9.4214E+002
 546.00  9.3414E+002
 546.50  9.2434E+002
 547.00  9.1849E+002
 547.50  9.1867E+002
 548.00  9.2164E+002
 548.50  9.2827E+002
 549.00  9.3249E+002
 549.50  9.3108E+002
 550.00  9.2913E+002
 550.50  9.3252E+002
 551.00  9.3794E+002
 551.50  9.4402E+002
 552.00  9.5361E+002
 552.50  9.5545E+002
 553.00  9.3989E+002
 553.50  9.1802E+002
 554.00  9.0061E+002
 554.50  8.8161E+002
 555.00  8.7583E+002
 555.50  8.8476E+002
 556.00  9.0094E+002
 556.50  9.1044E+002
 557.00  9.0991E+002
 557.50  9.0364E+002
 558.00  9.0319E+002
 558.50  9.1175E+002
 559.00  9.3296E+002
 559.50  9.6146E+002
 560.00  9.7589E+002
 560.50  9.6991E+002
 561.00  9.5879E+002
 561.50  9.5215E+002
 562.00  9.4603E+002
 562.50  9.4169E+002
 563.00  9.3835E+002
 563.50  9.3443E+002
 564.00  9.2374E+002
 564.50  9.2296E+002
 565.00  9.3219E+002
 565.50  9.2997E+002
 566.00  9.2302E+002
 566.50  9.1659E+002
 567.00  8.9725E+002
 567.50  8.8387E+002
 568.00  8.9041E+002
 568.50  8.9647E+002
 569.00  9.0892E+002
 569.50  9.2167E+002
 570.00  9.1932E+002
 570.50  9.1422E+002
 571.00  9.1287E+002
 571.50  9.1059E+002
 572.00  9.1490E+002
 572.50  9.2347E+002
 573.00  9.2384E+002
 573.50  9.1760E+002
 574.00  9.1443E+002
 574.50  9.1356E+002
 575.00  9.1378E+002
 575.50  9.1867E+002
 576.00  9.2559E+002
 576.50  9.2473E+002
 577.00  9.1635E+002
 577.50  9.1557E+002
 578.00  9.2451E+002
 578.50  9.3736E+002
 579.00  9.5766E+002
 579.50  9.7174E+002
 580.00  9.6781E+002
 580.50  9.6130E+002
 581.00  9.5490E+002
 581.50  9.4363E+002
 582.00  9.3408E+002
 582.50  9.2434E+002
 583.00  9.1095E+002
 583.50  9.0643E+002
 584.00  9.1038E+002
 584.50  9.1609E+002
 585.00  9.2523E+002
 585.50  9.2736E+002
 586.00  9.2134E+002
 586.50  9.1714E+002
 587.00  9.1325E+002
 587.50  9.1118E+002
 588.00  9.1725E+002
 588.50  9.2342E+002
 589.00  9.3092E+002
 589.50  9.3513E+002
 590.00  9.3051E+002
 590.50  9.1811E+002
 591.00  9.1072E+002
 591.50  9.0517E+002
 592.00  9.0293E+002
 592.50  9.0842E+002
 593.00  9.1243E+002
 593.50  9.0736E+002
 594.00  8.9377E+002
 594.50  8.8320E+002
 595.00  8.8448E+002
 595.50  8.8848E+002
 596.00  8.9327E+002
 596.50  8.9755E+002
 597.00  8.8938E+002
 597.50  8.8052E+002
 598.00  8.8297E+002
 598.50  8.9344E+002
 599.00  9.1306E+002
 599.50  9.4398E+002
 600.00  9.6863E+002
 600.50  9.8215E+002
 601.00  9.8182E+002
 601.50  9.6173E+002
 602.00  9.3829E+002
 602.50  9.2355E+002
 603.00  9.1264E+002
 603.50  9.1382E+002
 604.00  9.2512E+002
 604.50  9.3509E+002
 605.00  9.3923E+002
 605.50  9.4019E+002
 606.00  9.4044E+002
 606.50  9.3268E+002
 607.00  9.1749E+002
 607.50  9.0645E+002
 608.00  9.0320E+002
 608.50  9.0329E+002
 609.00  9.0375E+002
 609.50  9.0411E+002
 610.00  9.0337E+002
 610.50  9.0019E+002
 611.00  9.0242E+002
 611.50  9.0445E+002
 612.00  8.9610E+002
 612.50  8.8469E+002
 613.00  8.6866E+002
 613.50  8.5447E+002
 614.00  8.5464E+002
 614.50  8.6561E+002
 615.00  8.8245E+002
 615.50  8.9917E+002
 616.00  9.1185E+002
 616.50  9.2227E+002
 617.00  9.3251E+002
 617.50  9.3660E+002
 618.00  9.2967E+002
 618.50  9.2021E+002
 619.00  9.0518E+002
 619.50  8.8938E+002
 620.00  8.8140E+002
 620.50  8.8332E+002
 621.00  8.9640E+002
 621.50  9.1660E+002
 622.00  9.4029E+002
 622.50  9.5789E+002
 623.00  9.6003E+002
 623.50  9.5239E+002
 624.00  9.4313E+002
 624.50  9.3963E+002
 625.00  9.4628E+002
 625.50  9.5770E+002
 626.00  9.5865E+002
 626.50  9.5192E+002
 627.00  9.4312E+002
 627.50  9.3165E+002
 628.00  9.2386E+002
 628.50  9.2430E+002
 629.00  9.2248E+002
 629.50  9.2400E+002
 630.00  9.4132E+002
 630.50  9.7971E+002
 631.00  1.0153E+003
 631.50  1.0244E+003
 632.00  1.0112E+003
 632.50  9.7584E+002
 633.00  9.2314E+002
 633.50  8.9442E+002
 634.00  8.9404E+002
 634.50  9.0019E+002
 635.00  9.0828E+002
 635.50  9.1779E+002
 636.00  9.2629E+002
 636.50  9.2705E+002
 637.00  9.1957E+002
 637.50  9.1419E+002
 638.00  9.1075E+002
 638.50  9.1127E+002
 639.00  9.2260E+002
 639.50  9.4813E+002
 640.00  9.5530E+002
 640.50  9.4492E+002
 641.00  9.4544E+002
