" File: Users\LabUser\Documents\MonochromatorCal
"  SCOPE->  Wave:693.48nm  Pix:1050  Val:861.000  Time:100ms  Avg:1  Sm:1  Sg:0  Tc:off  SNAP  Xt:3  Ch:1  Xtrig  
 191.00  8.6680E+002
 191.50  8.7193E+002
 192.00  8.7100E+002
 192.50  8.7100E+002
 193.00  8.6582E+002
 193.50  8.6818E+002
 194.00  8.8284E+002
 194.50  8.8205E+002
 195.00  8.5641E+002
 195.50  8.2147E+002
 196.00  7.9846E+002
 196.50  8.1253E+002
 197.00  8.5715E+002
 197.50  8.8111E+002
 198.00  8.6375E+002
 198.50  8.2416E+002
 199.00  8.1364E+002
 199.50  8.3700E+002
 200.00  8.5570E+002
 200.50  8.7092E+002
 201.00  8.4723E+002
 201.50  8.2767E+002
 202.00  8.3449E+002
 202.50  8.3951E+002
 203.00  8.4095E+002
 203.50  8.4124E+002
 204.00  8.3715E+002
 204.50  8.3235E+002
 205.00  8.2928E+002
 205.50  8.2368E+002
 206.00  8.1700E+002
 206.50  8.1658E+002
 207.00  8.2193E+002
 207.50  8.2981E+002
 208.00  8.4280E+002
 208.50  8.5235E+002
 209.00  8.5506E+002
 209.50  8.5744E+002
 210.00  8.5887E+002
 210.50  8.5606E+002
 211.00  8.5487E+002
 211.50  8.5772E+002
 212.00  8.5933E+002
 212.50  8.5667E+002
 213.00  8.5420E+002
 213.50  8.5636E+002
 214.00  8.6029E+002
 214.50  8.6788E+002
 215.00  8.7339E+002
 215.50  8.7978E+002
 216.00  8.8599E+002
 216.50  8.8921E+002
 217.00  8.8911E+002
 217.50  8.9947E+002
 218.00  9.1595E+002
 218.50  9.2224E+002
 219.00  9.2167E+002
 219.50  9.1755E+002
 220.00  9.0158E+002
 220.50  8.7372E+002
 221.00  8.4993E+002
 221.50  8.3952E+002
 222.00  8.3447E+002
 222.50  8.3276E+002
 223.00  8.4004E+002
 223.50  8.4616E+002
 224.00  8.4238E+002
 224.50  8.3635E+002
 225.00  8.2853E+002
 225.50  8.1178E+002
 226.00  7.9385E+002
 226.50  7.8586E+002
 227.00  7.8493E+002
 227.50  7.8556E+002
 228.00  7.8679E+002
 228.50  7.9068E+002
 229.00  7.9618E+002
 229.50  8.0028E+002
 230.00  8.0266E+002
 230.50  8.0610E+002
 231.00  8.1284E+002
 231.50  8.1740E+002
 232.00  8.1818E+002
 232.50  8.1681E+002
 233.00  8.2344E+002
 233.50  8.3214E+002
 234.00  8.3672E+002
 234.50  8.3821E+002
 235.00  8.3824E+002
 235.50  8.3142E+002
 236.00  8.2093E+002
 236.50  8.1152E+002
 237.00  8.0415E+002
 237.50  7.9899E+002
 238.00  7.9823E+002
 238.50  8.0289E+002
 239.00  8.1183E+002
 239.50  8.2416E+002
 240.00  8.3850E+002
 240.50  8.5268E+002
 241.00  8.6333E+002
 241.50  8.6324E+002
 242.00  8.5667E+002
 242.50  8.4851E+002
 243.00  8.4034E+002
 243.50  8.3873E+002
 244.00  8.4101E+002
 244.50  8.4707E+002
 245.00  8.5265E+002
 245.50  8.5485E+002
 246.00  8.5560E+002
 246.50  8.6350E+002
 247.00  8.7480E+002
 247.50  8.8257E+002
 248.00  8.8724E+002
 248.50  8.8894E+002
 249.00  8.8572E+002
 249.50  8.8104E+002
 250.00  8.7913E+002
 250.50  8.7782E+002
 251.00  8.7503E+002
 251.50  8.7061E+002
 252.00  8.6456E+002
 252.50  8.5698E+002
 253.00  8.5050E+002
 253.50  8.4158E+002
 254.00  8.3208E+002
 254.50  8.2407E+002
 255.00  8.1896E+002
 255.50  8.1589E+002
 256.00  8.1577E+002
 256.50  8.1904E+002
 257.00  8.2072E+002
 257.50  8.1681E+002
 258.00  8.1065E+002
 258.50  8.0838E+002
 259.00  8.0926E+002
 259.50  8.1046E+002
 260.00  8.1242E+002
 260.50  8.1336E+002
 261.00  8.1177E+002
 261.50  8.0906E+002
 262.00  8.1088E+002
 262.50  8.1580E+002
 263.00  8.2072E+002
 263.50  8.2925E+002
 264.00  8.4054E+002
 264.50  8.4441E+002
 265.00  8.4387E+002
 265.50  8.4432E+002
 266.00  8.4473E+002
 266.50  8.4480E+002
 267.00  8.4421E+002
 267.50  8.4316E+002
 268.00  8.4464E+002
 268.50  8.4830E+002
 269.00  8.5218E+002
 269.50  8.5710E+002
 270.00  8.6118E+002
 270.50  8.6258E+002
 271.00  8.6305E+002
 271.50  8.6215E+002
 272.00  8.5822E+002
 272.50  8.5339E+002
 273.00  8.4931E+002
 273.50  8.4353E+002
 274.00  8.3234E+002
 274.50  8.2247E+002
 275.00  8.1802E+002
 275.50  8.2243E+002
 276.00  8.2674E+002
 276.50  8.3693E+002
 277.00  8.5255E+002
 277.50  8.7083E+002
 278.00  8.7899E+002
 278.50  8.8016E+002
 279.00  8.7801E+002
 279.50  8.6904E+002
 280.00  8.5104E+002
 280.50  8.3540E+002
 281.00  8.2953E+002
 281.50  8.2617E+002
 282.00  8.2047E+002
 282.50  8.1614E+002
 283.00  8.1744E+002
 283.50  8.2081E+002
 284.00  8.2205E+002
 284.50  8.2552E+002
 285.00  8.3411E+002
 285.50  8.4018E+002
 286.00  8.3765E+002
 286.50  8.3369E+002
 287.00  8.3011E+002
 287.50  8.2737E+002
 288.00  8.2712E+002
 288.50  8.2666E+002
 289.00  8.2792E+002
 289.50  8.3813E+002
 290.00  8.4200E+002
 290.50  8.3814E+002
 291.00  8.3856E+002
 291.50  8.4112E+002
 292.00  8.3759E+002
 292.50  8.3084E+002
 293.00  8.2896E+002
 293.50  8.3018E+002
 294.00  8.2810E+002
 294.50  8.2664E+002
 295.00  8.2815E+002
 295.50  8.2337E+002
 296.00  8.1363E+002
 296.50  8.0882E+002
 297.00  8.0753E+002
 297.50  8.0742E+002
 298.00  8.1274E+002
 298.50  8.1880E+002
 299.00  8.1696E+002
 299.50  8.1084E+002
 300.00  8.0766E+002
 300.50  8.0959E+002
 301.00  8.1739E+002
 301.50  8.2804E+002
 302.00  8.3794E+002
 302.50  8.4649E+002
 303.00  8.5101E+002
 303.50  8.4929E+002
 304.00  8.4360E+002
 304.50  8.3810E+002
 305.00  8.3688E+002
 305.50  8.3240E+002
 306.00  8.2374E+002
 306.50  8.2004E+002
 307.00  8.1923E+002
 307.50  8.1248E+002
 308.00  8.0747E+002
 308.50  8.0858E+002
 309.00  8.1955E+002
 309.50  8.3231E+002
 310.00  8.4372E+002
 310.50  8.5374E+002
 311.00  8.5899E+002
 311.50  8.5769E+002
 312.00  8.5359E+002
 312.50  8.5395E+002
 313.00  8.5958E+002
 313.50  8.6531E+002
 314.00  8.6613E+002
 314.50  8.6551E+002
 315.00  8.6790E+002
 315.50  8.7095E+002
 316.00  8.7170E+002
 316.50  8.6731E+002
 317.00  8.5576E+002
 317.50  8.3761E+002
 318.00  8.1751E+002
 318.50  8.0420E+002
 319.00  8.0230E+002
 319.50  8.1070E+002
 320.00  8.2321E+002
 320.50  8.3439E+002
 321.00  8.4111E+002
 321.50  8.4217E+002
 322.00  8.3591E+002
 322.50  8.2867E+002
 323.00  8.2478E+002
 323.50  8.2004E+002
 324.00  8.2096E+002
 324.50  8.3328E+002
 325.00  8.4448E+002
 325.50  8.4758E+002
 326.00  8.5493E+002
 326.50  8.6362E+002
 327.00  8.6395E+002
 327.50  8.6121E+002
 328.00  8.5317E+002
 328.50  8.4130E+002
 329.00  8.2764E+002
 329.50  8.1685E+002
 330.00  8.1347E+002
 330.50  8.2080E+002
 331.00  8.2994E+002
 331.50  8.3832E+002
 332.00  8.4839E+002
 332.50  8.5929E+002
 333.00  8.7173E+002
 333.50  8.8201E+002
 334.00  8.8648E+002
 334.50  8.8259E+002
 335.00  8.7214E+002
 335.50  8.6100E+002
 336.00  8.5475E+002
 336.50  8.5299E+002
 337.00  8.5756E+002
 337.50  8.6516E+002
 338.00  8.6473E+002
 338.50  8.5813E+002
 339.00  8.5137E+002
 339.50  8.4320E+002
 340.00  8.3488E+002
 340.50  8.2816E+002
 341.00  8.2227E+002
 341.50  8.2118E+002
 342.00  8.2884E+002
 342.50  8.4196E+002
 343.00  8.6023E+002
 343.50  8.8197E+002
 344.00  8.9722E+002
 344.50  9.0253E+002
 345.00  9.0225E+002
 345.50  8.9774E+002
 346.00  8.8979E+002
 346.50  8.8441E+002
 347.00  8.8121E+002
 347.50  8.7368E+002
 348.00  8.6514E+002
 348.50  8.5827E+002
 349.00  8.5319E+002
 349.50  8.4941E+002
 350.00  8.4862E+002
 350.50  8.4726E+002
 351.00  8.4396E+002
 351.50  8.3574E+002
 352.00  8.2632E+002
 352.50  8.2476E+002
 353.00  8.2986E+002
 353.50  8.3597E+002
 354.00  8.4665E+002
 354.50  8.5807E+002
 355.00  8.5822E+002
 355.50  8.4823E+002
 356.00  8.3899E+002
 356.50  8.3165E+002
 357.00  8.2836E+002
 357.50  8.2916E+002
 358.00  8.3604E+002
 358.50  8.4969E+002
 359.00  8.6242E+002
 359.50  8.6443E+002
 360.00  8.6160E+002
 360.50  8.5695E+002
 361.00  8.5071E+002
 361.50  8.4713E+002
 362.00  8.4645E+002
 362.50  8.4514E+002
 363.00  8.4425E+002
 363.50  8.4034E+002
 364.00  8.3389E+002
 364.50  8.3526E+002
 365.00  8.4094E+002
 365.50  8.4828E+002
 366.00  8.6059E+002
 366.50  8.7508E+002
 367.00  8.8567E+002
 367.50  8.9359E+002
 368.00  9.0024E+002
 368.50  8.9664E+002
 369.00  8.8486E+002
 369.50  8.7291E+002
 370.00  8.6567E+002
 370.50  8.5708E+002
 371.00  8.4788E+002
 371.50  8.3800E+002
 372.00  8.2480E+002
 372.50  8.1801E+002
 373.00  8.1870E+002
 373.50  8.3125E+002
 374.00  8.5092E+002
 374.50  8.6550E+002
 375.00  8.7072E+002
 375.50  8.7661E+002
 376.00  8.7686E+002
 376.50  8.6904E+002
 377.00  8.6011E+002
 377.50  8.5462E+002
 378.00  8.4425E+002
 378.50  8.3576E+002
 379.00  8.3350E+002
 379.50  8.3865E+002
 380.00  8.4098E+002
 380.50  8.4004E+002
 381.00  8.4163E+002
 381.50  8.4263E+002
 382.00  8.3572E+002
 382.50  8.2570E+002
 383.00  8.2206E+002
 383.50  8.1120E+002
 384.00  7.9981E+002
 384.50  8.0057E+002
 385.00  8.0970E+002
 385.50  8.1679E+002
 386.00  8.2520E+002
 386.50  8.3309E+002
 387.00  8.3830E+002
 387.50  8.4012E+002
 388.00  8.4221E+002
 388.50  8.4547E+002
 389.00  8.4933E+002
 389.50  8.5361E+002
 390.00  8.5533E+002
 390.50  8.4736E+002
 391.00  8.3883E+002
 391.50  8.3663E+002
 392.00  8.3088E+002
 392.50  8.2562E+002
 393.00  8.3203E+002
 393.50  8.4528E+002
 394.00  8.5626E+002
 394.50  8.6259E+002
 395.00  8.6800E+002
 395.50  8.7033E+002
 396.00  8.6286E+002
 396.50  8.5290E+002
 397.00  8.4720E+002
 397.50  8.4563E+002
 398.00  8.4672E+002
 398.50  8.4687E+002
 399.00  8.4564E+002
 399.50  8.4544E+002
 400.00  8.4289E+002
 400.50  8.3680E+002
 401.00  8.2948E+002
 401.50  8.2498E+002
 402.00  8.2600E+002
 402.50  8.2264E+002
 403.00  8.1920E+002
 403.50  8.2337E+002
 404.00  8.2696E+002
 404.50  8.2777E+002
 405.00  8.3384E+002
 405.50  8.3888E+002
 406.00  8.4172E+002
 406.50  8.4857E+002
 407.00  8.5351E+002
 407.50  8.5480E+002
 408.00  8.5781E+002
 408.50  8.6133E+002
 409.00  8.6295E+002
 409.50  8.6105E+002
 410.00  8.5300E+002
 410.50  8.4289E+002
 411.00  8.3298E+002
 411.50  8.2325E+002
 412.00  8.1837E+002
 412.50  8.1867E+002
 413.00  8.2103E+002
 413.50  8.2571E+002
 414.00  8.2979E+002
 414.50  8.3390E+002
 415.00  8.4151E+002
 415.50  8.4789E+002
 416.00  8.4870E+002
 416.50  8.4609E+002
 417.00  8.3999E+002
 417.50  8.3136E+002
 418.00  8.2092E+002
 418.50  8.1183E+002
 419.00  8.0766E+002
 419.50  8.1158E+002
 420.00  8.2377E+002
 420.50  8.4453E+002
 421.00  8.6142E+002
 421.50  8.6871E+002
 422.00  8.7387E+002
 422.50  8.7198E+002
 423.00  8.6571E+002
 423.50  8.6591E+002
 424.00  8.6935E+002
 424.50  8.6485E+002
 425.00  8.6363E+002
 425.50  8.5607E+002
 426.00  8.4009E+002
 426.50  8.3095E+002
 427.00  8.3563E+002
 427.50  8.4060E+002
 428.00  8.5195E+002
 428.50  8.6639E+002
 429.00  8.7987E+002
 429.50  8.8929E+002
 430.00  8.9040E+002
 430.50  8.8696E+002
 431.00  8.7600E+002
 431.50  8.5714E+002
 432.00  8.4740E+002
 432.50  8.4675E+002
 433.00  8.4494E+002
 433.50  8.4921E+002
 434.00  8.5840E+002
 434.50  8.5378E+002
 435.00  8.4535E+002
 435.50  8.4307E+002
 436.00  8.3607E+002
 436.50  8.2654E+002
 437.00  8.2606E+002
 437.50  8.2607E+002
 438.00  8.2086E+002
 438.50  8.1717E+002
 439.00  8.1202E+002
 439.50  8.0056E+002
 440.00  7.9016E+002
 440.50  7.8782E+002
 441.00  7.9148E+002
 441.50  7.9957E+002
 442.00  8.1241E+002
 442.50  8.2234E+002
 443.00  8.2751E+002
 443.50  8.2924E+002
 444.00  8.2922E+002
 444.50  8.2975E+002
 445.00  8.3454E+002
 445.50  8.4419E+002
 446.00  8.5526E+002
 446.50  8.6411E+002
 447.00  8.7272E+002
 447.50  8.8121E+002
 448.00  8.9464E+002
 448.50  9.1199E+002
 449.00  9.3428E+002
 449.50  9.6362E+002
 450.00  9.9566E+002
 450.50  1.0189E+003
 451.00  1.0331E+003
 451.50  1.0302E+003
 452.00  1.0103E+003
 452.50  9.8846E+002
 453.00  9.6371E+002
 453.50  9.3584E+002
 454.00  9.1565E+002
 454.50  9.0200E+002
 455.00  8.9204E+002
 455.50  8.9379E+002
 456.00  9.0572E+002
 456.50  9.1577E+002
 457.00  9.1651E+002
 457.50  9.0870E+002
 458.00  8.9397E+002
 458.50  8.7373E+002
 459.00  8.5680E+002
 459.50  8.4526E+002
 460.00  8.3687E+002
 460.50  8.3525E+002
 461.00  8.4487E+002
 461.50  8.5221E+002
 462.00  8.5254E+002
 462.50  8.5103E+002
 463.00  8.4423E+002
 463.50  8.3561E+002
 464.00  8.3929E+002
 464.50  8.4746E+002
 465.00  8.5508E+002
 465.50  8.6287E+002
 466.00  8.6421E+002
 466.50  8.5846E+002
 467.00  8.5060E+002
 467.50  8.4218E+002
 468.00  8.3757E+002
 468.50  8.3594E+002
 469.00  8.3753E+002
 469.50  8.4039E+002
 470.00  8.4321E+002
 470.50  8.3965E+002
 471.00  8.2697E+002
 471.50  8.1484E+002
 472.00  8.1243E+002
 472.50  8.1048E+002
 473.00  8.1057E+002
 473.50  8.1864E+002
 474.00  8.2420E+002
 474.50  8.2233E+002
 475.00  8.2132E+002
 475.50  8.3049E+002
 476.00  8.4129E+002
 476.50  8.5323E+002
 477.00  8.6417E+002
 477.50  8.6880E+002
 478.00  8.7242E+002
 478.50  8.7106E+002
 479.00  8.6184E+002
 479.50  8.5134E+002
 480.00  8.4069E+002
 480.50  8.3179E+002
 481.00  8.3241E+002
 481.50  8.4324E+002
 482.00  8.5760E+002
 482.50  8.6493E+002
 483.00  8.6552E+002
 483.50  8.6238E+002
 484.00  8.5366E+002
 484.50  8.4627E+002
 485.00  8.4658E+002
 485.50  8.5187E+002
 486.00  8.5444E+002
 486.50  8.5529E+002
 487.00  8.5811E+002
 487.50  8.6234E+002
 488.00  8.6569E+002
 488.50  8.6854E+002
 489.00  8.6951E+002
 489.50  8.6316E+002
 490.00  8.5192E+002
 490.50  8.4171E+002
 491.00  8.3527E+002
 491.50  8.3140E+002
 492.00  8.2314E+002
 492.50  8.1406E+002
 493.00  8.1271E+002
 493.50  8.1430E+002
 494.00  8.1961E+002
 494.50  8.3028E+002
 495.00  8.3178E+002
 495.50  8.3232E+002
 496.00  8.3918E+002
 496.50  8.4476E+002
 497.00  8.4968E+002
 497.50  8.5321E+002
 498.00  8.4957E+002
 498.50  8.4199E+002
 499.00  8.3124E+002
 499.50  8.2262E+002
 500.00  8.1564E+002
 500.50  8.1182E+002
 501.00  8.2203E+002
 501.50  8.3862E+002
 502.00  8.5208E+002
 502.50  8.6755E+002
 503.00  8.7219E+002
 503.50  8.6483E+002
 504.00  8.6062E+002
 504.50  8.5722E+002
 505.00  8.5250E+002
 505.50  8.5448E+002
 506.00  8.5484E+002
 506.50  8.5432E+002
 507.00  8.6121E+002
 507.50  8.6593E+002
 508.00  8.6247E+002
 508.50  8.6283E+002
 509.00  8.6641E+002
 509.50  8.6632E+002
 510.00  8.7031E+002
 510.50  8.7300E+002
 511.00  8.6868E+002
 511.50  8.6656E+002
 512.00  8.6778E+002
 512.50  8.6911E+002
 513.00  8.7235E+002
 513.50  8.7528E+002
 514.00  8.7706E+002
 514.50  8.7630E+002
 515.00  8.6921E+002
 515.50  8.6668E+002
 516.00  8.6035E+002
 516.50  8.4258E+002
 517.00  8.2566E+002
 517.50  8.1655E+002
 518.00  8.0932E+002
 518.50  8.0899E+002
 519.00  8.1761E+002
 519.50  8.2166E+002
 520.00  8.2149E+002
 520.50  8.2782E+002
 521.00  8.2742E+002
 521.50  8.2333E+002
 522.00  8.3119E+002
 522.50  8.3850E+002
 523.00  8.3438E+002
 523.50  8.3107E+002
 524.00  8.2658E+002
 524.50  8.1629E+002
 525.00  8.0397E+002
 525.50  7.9664E+002
 526.00  7.9844E+002
 526.50  8.0603E+002
 527.00  8.1903E+002
 527.50  8.3795E+002
 528.00  8.5223E+002
 528.50  8.5243E+002
 529.00  8.4042E+002
 529.50  8.3031E+002
 530.00  8.1745E+002
 530.50  8.0606E+002
 531.00  8.0870E+002
 531.50  8.2263E+002
 532.00  8.3674E+002
 532.50  8.5551E+002
 533.00  8.7258E+002
 533.50  8.7933E+002
 534.00  8.7961E+002
 534.50  8.7617E+002
 535.00  8.6890E+002
 535.50  8.5794E+002
 536.00  8.4509E+002
 536.50  8.3995E+002
 537.00  8.4110E+002
 537.50  8.3969E+002
 538.00  8.4366E+002
 538.50  8.5601E+002
 539.00  8.6508E+002
 539.50  8.7193E+002
 540.00  8.8054E+002
 540.50  8.8475E+002
 541.00  8.8025E+002
 541.50  8.7464E+002
 542.00  8.7110E+002
 542.50  8.6749E+002
 543.00  8.6140E+002
 543.50  8.5767E+002
 544.00  8.5908E+002
 544.50  8.6470E+002
 545.00  8.7126E+002
 545.50  8.7131E+002
 546.00  8.6324E+002
 546.50  8.5046E+002
 547.00  8.4137E+002
 547.50  8.3969E+002
 548.00  8.4371E+002
 548.50  8.5388E+002
 549.00  8.6354E+002
 549.50  8.6065E+002
 550.00  8.5298E+002
 550.50  8.4417E+002
 551.00  8.2717E+002
 551.50  8.1326E+002
 552.00  8.0831E+002
 552.50  8.0688E+002
 553.00  8.1023E+002
 553.50  8.1685E+002
 554.00  8.2049E+002
 554.50  8.2371E+002
 555.00  8.2717E+002
 555.50  8.3144E+002
 556.00  8.3580E+002
 556.50  8.3808E+002
 557.00  8.3966E+002
 557.50  8.4101E+002
 558.00  8.4473E+002
 558.50  8.5032E+002
 559.00  8.5522E+002
 559.50  8.5935E+002
 560.00  8.4998E+002
 560.50  8.3485E+002
 561.00  8.3057E+002
 561.50  8.2841E+002
 562.00  8.3079E+002
 562.50  8.4354E+002
 563.00  8.4785E+002
 563.50  8.4422E+002
 564.00  8.4092E+002
 564.50  8.3806E+002
 565.00  8.4073E+002
 565.50  8.4717E+002
 566.00  8.5228E+002
 566.50  8.5980E+002
 567.00  8.6711E+002
 567.50  8.6550E+002
 568.00  8.6794E+002
 568.50  8.6914E+002
 569.00  8.6398E+002
 569.50  8.6279E+002
 570.00  8.6638E+002
 570.50  8.6435E+002
 571.00  8.6320E+002
 571.50  8.6541E+002
 572.00  8.6346E+002
 572.50  8.5533E+002
 573.00  8.4926E+002
 573.50  8.4399E+002
 574.00  8.4211E+002
 574.50  8.3998E+002
 575.00  8.3737E+002
 575.50  8.3768E+002
 576.00  8.3391E+002
 576.50  8.2299E+002
 577.00  8.1372E+002
 577.50  8.0944E+002
 578.00  8.1033E+002
 578.50  8.1928E+002
 579.00  8.2679E+002
 579.50  8.3288E+002
 580.00  8.2702E+002
 580.50  8.1266E+002
 581.00  8.0762E+002
 581.50  8.1054E+002
 582.00  8.1602E+002
 582.50  8.2786E+002
 583.00  8.4006E+002
 583.50  8.4734E+002
 584.00  8.5379E+002
 584.50  8.5444E+002
 585.00  8.4424E+002
 585.50  8.2982E+002
 586.00  8.2018E+002
 586.50  8.1525E+002
 587.00  8.1749E+002
 587.50  8.2439E+002
 588.00  8.2235E+002
 588.50  8.1135E+002
 589.00  8.0876E+002
 589.50  8.1506E+002
 590.00  8.2400E+002
 590.50  8.3683E+002
 591.00  8.4986E+002
 591.50  8.5485E+002
 592.00  8.6020E+002
 592.50  8.6655E+002
 593.00  8.6571E+002
 593.50  8.6365E+002
 594.00  8.6129E+002
 594.50  8.5333E+002
 595.00  8.4529E+002
 595.50  8.4194E+002
 596.00  8.4236E+002
 596.50  8.4407E+002
 597.00  8.4826E+002
 597.50  8.5778E+002
 598.00  8.6375E+002
 598.50  8.6079E+002
 599.00  8.5801E+002
 599.50  8.5967E+002
 600.00  8.5704E+002
 600.50  8.4851E+002
 601.00  8.4225E+002
 601.50  8.3836E+002
 602.00  8.3053E+002
 602.50  8.2789E+002
 603.00  8.3333E+002
 603.50  8.3574E+002
 604.00  8.3574E+002
 604.50  8.4255E+002
 605.00  8.5112E+002
 605.50  8.5511E+002
 606.00  8.5176E+002
 606.50  8.4716E+002
 607.00  8.4256E+002
 607.50  8.3011E+002
 608.00  8.2178E+002
 608.50  8.2091E+002
 609.00  8.1797E+002
 609.50  8.1506E+002
 610.00  8.2175E+002
 610.50  8.3511E+002
 611.00  8.4496E+002
 611.50  8.5171E+002
 612.00  8.6074E+002
 612.50  8.6060E+002
 613.00  8.4844E+002
 613.50  8.3903E+002
 614.00  8.3296E+002
 614.50  8.2932E+002
 615.00  8.3561E+002
 615.50  8.5111E+002
 616.00  8.6402E+002
 616.50  8.7617E+002
 617.00  8.8586E+002
 617.50  8.8659E+002
 618.00  8.8560E+002
 618.50  8.8286E+002
 619.00  8.7818E+002
 619.50  8.7988E+002
 620.00  8.8015E+002
 620.50  8.7737E+002
 621.00  8.7444E+002
 621.50  8.6555E+002
 622.00  8.5962E+002
 622.50  8.5799E+002
 623.00  8.5755E+002
 623.50  8.6272E+002
 624.00  8.6243E+002
 624.50  8.5682E+002
 625.00  8.5413E+002
 625.50  8.4588E+002
 626.00  8.4458E+002
 626.50  8.5084E+002
 627.00  8.5456E+002
 627.50  8.5395E+002
 628.00  8.4812E+002
 628.50  8.4000E+002
 629.00  8.3697E+002
 629.50  8.3688E+002
 630.00  8.4268E+002
 630.50  8.4898E+002
 631.00  8.4967E+002
 631.50  8.4700E+002
 632.00  8.4856E+002
 632.50  8.4825E+002
 633.00  8.4535E+002
 633.50  8.4380E+002
 634.00  8.4375E+002
 634.50  8.4290E+002
 635.00  8.4013E+002
 635.50  8.3989E+002
 636.00  8.4579E+002
 636.50  8.4670E+002
 637.00  8.3867E+002
 637.50  8.3020E+002
 638.00  8.3059E+002
 638.50  8.3757E+002
 639.00  8.5478E+002
 639.50  8.7932E+002
 640.00  8.9394E+002
 640.50  8.9732E+002
 641.00  8.9778E+002
