" File: Users\LabUser\Documents\MonochromatorCal
"  SCOPE->  Wave:693.48nm  Pix:1050  Val:861.400  Time:100ms  Avg:1  Sm:1  Sg:0  Tc:off  SNAP  Xt:3  Ch:1  Xtrig  
 191.00  8.7034E+002
 191.50  8.7775E+002
 192.00  8.6004E+002
 192.50  8.3302E+002
 193.00  8.3186E+002
 193.50  8.2404E+002
 194.00  8.0452E+002
 194.50  8.1586E+002
 195.00  8.2262E+002
 195.50  8.1097E+002
 196.00  8.0385E+002
 196.50  8.1943E+002
 197.00  8.4033E+002
 197.50  8.2839E+002
 198.00  7.9024E+002
 198.50  7.8333E+002
 199.00  8.1266E+002
 199.50  8.2200E+002
 200.00  8.1919E+002
 200.50  8.3031E+002
 201.00  8.5293E+002
 201.50  8.4985E+002
 202.00  8.3118E+002
 202.50  8.1883E+002
 203.00  8.1120E+002
 203.50  8.1252E+002
 204.00  8.2396E+002
 204.50  8.3170E+002
 205.00  8.3068E+002
 205.50  8.3191E+002
 206.00  8.3750E+002
 206.50  8.4072E+002
 207.00  8.4760E+002
 207.50  8.6166E+002
 208.00  8.7188E+002
 208.50  8.7825E+002
 209.00  8.8520E+002
 209.50  8.9131E+002
 210.00  8.8967E+002
 210.50  8.8631E+002
 211.00  8.8802E+002
 211.50  8.8905E+002
 212.00  8.8154E+002
 212.50  8.6867E+002
 213.00  8.5678E+002
 213.50  8.4356E+002
 214.00  8.2812E+002
 214.50  8.1935E+002
 215.00  8.1923E+002
 215.50  8.2299E+002
 216.00  8.3687E+002
 216.50  8.4903E+002
 217.00  8.5158E+002
 217.50  8.5241E+002
 218.00  8.5022E+002
 218.50  8.4074E+002
 219.00  8.3321E+002
 219.50  8.3497E+002
 220.00  8.3942E+002
 220.50  8.4190E+002
 221.00  8.4505E+002
 221.50  8.4618E+002
 222.00  8.4153E+002
 222.50  8.3593E+002
 223.00  8.3607E+002
 223.50  8.3982E+002
 224.00  8.4319E+002
 224.50  8.4150E+002
 225.00  8.3269E+002
 225.50  8.2194E+002
 226.00  8.1612E+002
 226.50  8.1759E+002
 227.00  8.2019E+002
 227.50  8.2586E+002
 228.00  8.3750E+002
 228.50  8.4738E+002
 229.00  8.4510E+002
 229.50  8.3354E+002
 230.00  8.2434E+002
 230.50  8.1947E+002
 231.00  8.1320E+002
 231.50  8.1087E+002
 232.00  8.2231E+002
 232.50  8.3978E+002
 233.00  8.5247E+002
 233.50  8.6875E+002
 234.00  8.8520E+002
 234.50  8.9375E+002
 235.00  8.9800E+002
 235.50  8.9615E+002
 236.00  8.8399E+002
 236.50  8.7173E+002
 237.00  8.6587E+002
 237.50  8.6313E+002
 238.00  8.6208E+002
 238.50  8.6392E+002
 239.00  8.6563E+002
 239.50  8.6430E+002
 240.00  8.6333E+002
 240.50  8.6489E+002
 241.00  8.6549E+002
 241.50  8.6698E+002
 242.00  8.6670E+002
 242.50  8.6516E+002
 243.00  8.6194E+002
 243.50  8.5889E+002
 244.00  8.5568E+002
 244.50  8.5358E+002
 245.00  8.4940E+002
 245.50  8.4437E+002
 246.00  8.4135E+002
 246.50  8.3889E+002
 247.00  8.3960E+002
 247.50  8.4408E+002
 248.00  8.4802E+002
 248.50  8.5227E+002
 249.00  8.5755E+002
 249.50  8.5691E+002
 250.00  8.5038E+002
 250.50  8.4591E+002
 251.00  8.4378E+002
 251.50  8.3416E+002
 252.00  8.2714E+002
 252.50  8.2881E+002
 253.00  8.2900E+002
 253.50  8.2825E+002
 254.00  8.2695E+002
 254.50  8.2139E+002
 255.00  8.1401E+002
 255.50  8.1014E+002
 256.00  8.0968E+002
 256.50  8.1297E+002
 257.00  8.2125E+002
 257.50  8.3235E+002
 258.00  8.4474E+002
 258.50  8.5379E+002
 259.00  8.5617E+002
 259.50  8.5615E+002
 260.00  8.5493E+002
 260.50  8.4745E+002
 261.00  8.3884E+002
 261.50  8.3818E+002
 262.00  8.3953E+002
 262.50  8.3965E+002
 263.00  8.4309E+002
 263.50  8.4619E+002
 264.00  8.4083E+002
 264.50  8.3509E+002
 265.00  8.3244E+002
 265.50  8.2440E+002
 266.00  8.1710E+002
 266.50  8.1940E+002
 267.00  8.2602E+002
 267.50  8.2772E+002
 268.00  8.2721E+002
 268.50  8.2884E+002
 269.00  8.3310E+002
 269.50  8.4232E+002
 270.00  8.5665E+002
 270.50  8.7294E+002
 271.00  8.8699E+002
 271.50  8.9426E+002
 272.00  8.9297E+002
 272.50  8.8350E+002
 273.00  8.6937E+002
 273.50  8.5911E+002
 274.00  8.5442E+002
 274.50  8.5209E+002
 275.00  8.5671E+002
 275.50  8.7047E+002
 276.00  8.8284E+002
 276.50  8.8611E+002
 277.00  8.9069E+002
 277.50  8.8992E+002
 278.00  8.8327E+002
 278.50  8.7514E+002
 279.00  8.6467E+002
 279.50  8.4400E+002
 280.00  8.2221E+002
 280.50  8.0748E+002
 281.00  7.9972E+002
 281.50  7.9832E+002
 282.00  8.0261E+002
 282.50  8.0738E+002
 283.00  8.1027E+002
 283.50  8.1015E+002
 284.00  8.0441E+002
 284.50  7.9812E+002
 285.00  7.9790E+002
 285.50  7.9917E+002
 286.00  7.9946E+002
 286.50  8.0438E+002
 287.00  8.0862E+002
 287.50  8.0506E+002
 288.00  8.0283E+002
 288.50  8.0560E+002
 289.00  8.0575E+002
 289.50  8.0818E+002
 290.00  8.1939E+002
 290.50  8.2345E+002
 291.00  8.2192E+002
 291.50  8.2539E+002
 292.00  8.2649E+002
 292.50  8.2577E+002
 293.00  8.3360E+002
 293.50  8.4404E+002
 294.00  8.4836E+002
 294.50  8.4928E+002
 295.00  8.4886E+002
 295.50  8.4156E+002
 296.00  8.3030E+002
 296.50  8.2548E+002
 297.00  8.2867E+002
 297.50  8.3233E+002
 298.00  8.3736E+002
 298.50  8.4724E+002
 299.00  8.5490E+002
 299.50  8.5577E+002
 300.00  8.5545E+002
 300.50  8.5820E+002
 301.00  8.6176E+002
 301.50  8.6211E+002
 302.00  8.6134E+002
 302.50  8.6274E+002
 303.00  8.6028E+002
 303.50  8.5244E+002
 304.00  8.4569E+002
 304.50  8.4120E+002
 305.00  8.3139E+002
 305.50  8.2082E+002
 306.00  8.1685E+002
 306.50  8.1977E+002
 307.00  8.2326E+002
 307.50  8.3442E+002
 308.00  8.4771E+002
 308.50  8.5375E+002
 309.00  8.5252E+002
 309.50  8.5253E+002
 310.00  8.5212E+002
 310.50  8.5262E+002
 311.00  8.5190E+002
 311.50  8.4770E+002
 312.00  8.4216E+002
 312.50  8.3745E+002
 313.00  8.3522E+002
 313.50  8.3418E+002
 314.00  8.3428E+002
 314.50  8.3483E+002
 315.00  8.3270E+002
 315.50  8.2515E+002
 316.00  8.1581E+002
 316.50  8.0599E+002
 317.00  7.9420E+002
 317.50  7.8577E+002
 318.00  7.8530E+002
 318.50  7.8971E+002
 319.00  7.9603E+002
 319.50  8.0563E+002
 320.00  8.1640E+002
 320.50  8.2404E+002
 321.00  8.2608E+002
 321.50  8.2918E+002
 322.00  8.3546E+002
 322.50  8.3677E+002
 323.00  8.3033E+002
 323.50  8.3061E+002
 324.00  8.3425E+002
 324.50  8.3743E+002
 325.00  8.4133E+002
 325.50  8.4866E+002
 326.00  8.5663E+002
 326.50  8.6035E+002
 327.00  8.5894E+002
 327.50  8.5581E+002
 328.00  8.4954E+002
 328.50  8.3597E+002
 329.00  8.2675E+002
 329.50  8.2749E+002
 330.00  8.3211E+002
 330.50  8.4197E+002
 331.00  8.5134E+002
 331.50  8.5972E+002
 332.00  8.6283E+002
 332.50  8.6141E+002
 333.00  8.6116E+002
 333.50  8.6555E+002
 334.00  8.6984E+002
 334.50  8.6694E+002
 335.00  8.6023E+002
 335.50  8.5139E+002
 336.00  8.4666E+002
 336.50  8.5013E+002
 337.00  8.5907E+002
 337.50  8.6892E+002
 338.00  8.7806E+002
 338.50  8.7956E+002
 339.00  8.6906E+002
 339.50  8.5626E+002
 340.00  8.4705E+002
 340.50  8.3795E+002
 341.00  8.2919E+002
 341.50  8.2234E+002
 342.00  8.1439E+002
 342.50  8.0532E+002
 343.00  8.0168E+002
 343.50  8.0522E+002
 344.00  8.1196E+002
 344.50  8.2188E+002
 345.00  8.3253E+002
 345.50  8.3586E+002
 346.00  8.3222E+002
 346.50  8.2866E+002
 347.00  8.2575E+002
 347.50  8.2347E+002
 348.00  8.2532E+002
 348.50  8.2861E+002
 349.00  8.2719E+002
 349.50  8.2114E+002
 350.00  8.1331E+002
 350.50  8.0637E+002
 351.00  8.0581E+002
 351.50  8.1256E+002
 352.00  8.2131E+002
 352.50  8.3272E+002
 353.00  8.4797E+002
 353.50  8.6000E+002
 354.00  8.6598E+002
 354.50  8.7196E+002
 355.00  8.7340E+002
 355.50  8.6744E+002
 356.00  8.6077E+002
 356.50  8.5756E+002
 357.00  8.5408E+002
 357.50  8.5070E+002
 358.00  8.5033E+002
 358.50  8.5065E+002
 359.00  8.4763E+002
 359.50  8.4049E+002
 360.00  8.3772E+002
 360.50  8.3983E+002
 361.00  8.4034E+002
 361.50  8.4400E+002
 362.00  8.5408E+002
 362.50  8.6134E+002
 363.00  8.6272E+002
 363.50  8.6419E+002
 364.00  8.6817E+002
 364.50  8.7059E+002
 365.00  8.7780E+002
 365.50  8.8553E+002
 366.00  8.9274E+002
 366.50  8.9732E+002
 367.00  8.9554E+002
 367.50  8.8430E+002
 368.00  8.7158E+002
 368.50  8.5931E+002
 369.00  8.4506E+002
 369.50  8.3739E+002
 370.00  8.3220E+002
 370.50  8.2697E+002
 371.00  8.2033E+002
 371.50  8.1220E+002
 372.00  8.0583E+002
 372.50  8.0712E+002
 373.00  8.1170E+002
 373.50  8.1565E+002
 374.00  8.1810E+002
 374.50  8.2250E+002
 375.00  8.1777E+002
 375.50  8.1612E+002
 376.00  8.2280E+002
 376.50  8.3393E+002
 377.00  8.4150E+002
 377.50  8.5851E+002
 378.00  8.7586E+002
 378.50  8.7908E+002
 379.00  8.7275E+002
 379.50  8.7038E+002
 380.00  8.6917E+002
 380.50  8.5824E+002
 381.00  8.5106E+002
 381.50  8.5344E+002
 382.00  8.4710E+002
 382.50  8.4368E+002
 383.00  8.5339E+002
 383.50  8.6551E+002
 384.00  8.7462E+002
 384.50  8.8555E+002
 385.00  8.8389E+002
 385.50  8.7227E+002
 386.00  8.6503E+002
 386.50  8.5754E+002
 387.00  8.4927E+002
 387.50  8.4746E+002
 388.00  8.5168E+002
 388.50  8.5621E+002
 389.00  8.6503E+002
 389.50  8.7539E+002
 390.00  8.7707E+002
 390.50  8.7010E+002
 391.00  8.5563E+002
 391.50  8.4012E+002
 392.00  8.3255E+002
 392.50  8.3426E+002
 393.00  8.3865E+002
 393.50  8.4554E+002
 394.00  8.4971E+002
 394.50  8.4250E+002
 395.00  8.3268E+002
 395.50  8.2873E+002
 396.00  8.3009E+002
 396.50  8.3615E+002
 397.00  8.5064E+002
 397.50  8.6171E+002
 398.00  8.6572E+002
 398.50  8.6534E+002
 399.00  8.5951E+002
 399.50  8.4776E+002
 400.00  8.3645E+002
 400.50  8.2857E+002
 401.00  8.2686E+002
 401.50  8.3071E+002
 402.00  8.3462E+002
 402.50  8.3628E+002
 403.00  8.3994E+002
 403.50  8.4104E+002
 404.00  8.3512E+002
 404.50  8.2663E+002
 405.00  8.2468E+002
 405.50  8.2430E+002
 406.00  8.1635E+002
 406.50  8.0718E+002
 407.00  8.0496E+002
 407.50  8.0656E+002
 408.00  8.0686E+002
 408.50  8.1154E+002
 409.00  8.2159E+002
 409.50  8.2629E+002
 410.00  8.2067E+002
 410.50  8.1449E+002
 411.00  8.1112E+002
 411.50  8.0980E+002
 412.00  8.1366E+002
 412.50  8.2072E+002
 413.00  8.2888E+002
 413.50  8.4078E+002
 414.00  8.5009E+002
 414.50  8.5355E+002
 415.00  8.5726E+002
 415.50  8.6133E+002
 416.00  8.6324E+002
 416.50  8.6532E+002
 417.00  8.6390E+002
 417.50  8.6252E+002
 418.00  8.5856E+002
 418.50  8.4448E+002
 419.00  8.3235E+002
 419.50  8.3422E+002
 420.00  8.3810E+002
 420.50  8.3784E+002
 421.00  8.3907E+002
 421.50  8.4257E+002
 422.00  8.4286E+002
 422.50  8.4123E+002
 423.00  8.4957E+002
 423.50  8.6573E+002
 424.00  8.7465E+002
 424.50  8.7634E+002
 425.00  8.8184E+002
 425.50  8.8339E+002
 426.00  8.7723E+002
 426.50  8.6221E+002
 427.00  8.4969E+002
 427.50  8.3204E+002
 428.00  8.1428E+002
 428.50  8.0775E+002
 429.00  8.1073E+002
 429.50  8.1431E+002
 430.00  8.2403E+002
 430.50  8.3187E+002
 431.00  8.2946E+002
 431.50  8.2405E+002
 432.00  8.1705E+002
 432.50  8.0991E+002
 433.00  8.1100E+002
 433.50  8.2144E+002
 434.00  8.3311E+002
 434.50  8.4653E+002
 435.00  8.5663E+002
 435.50  8.5356E+002
 436.00  8.4026E+002
 436.50  8.2908E+002
 437.00  8.1892E+002
 437.50  8.0647E+002
 438.00  7.9777E+002
 438.50  7.9856E+002
 439.00  8.0703E+002
 439.50  8.1564E+002
 440.00  8.2398E+002
 440.50  8.2931E+002
 441.00  8.3142E+002
 441.50  8.2999E+002
 442.00  8.2940E+002
 442.50  8.2940E+002
 443.00  8.3207E+002
 443.50  8.3191E+002
 444.00  8.2770E+002
 444.50  8.2812E+002
 445.00  8.3389E+002
 445.50  8.4183E+002
 446.00  8.5271E+002
 446.50  8.6864E+002
 447.00  8.8066E+002
 447.50  8.8783E+002
 448.00  8.9355E+002
 448.50  8.9055E+002
 449.00  8.8324E+002
 449.50  8.7963E+002
 450.00  8.7291E+002
 450.50  8.6663E+002
 451.00  8.7117E+002
 451.50  8.7118E+002
 452.00  8.6435E+002
 452.50  8.6382E+002
 453.00  8.6314E+002
 453.50  8.5764E+002
 454.00  8.5581E+002
 454.50  8.5553E+002
 455.00  8.5437E+002
 455.50  8.5577E+002
 456.00  8.5833E+002
 456.50  8.5799E+002
 457.00  8.5627E+002
 457.50  8.5802E+002
 458.00  8.6004E+002
 458.50  8.5959E+002
 459.00  8.5906E+002
 459.50  8.5566E+002
 460.00  8.4148E+002
 460.50  8.2366E+002
 461.00  8.1353E+002
 461.50  8.0960E+002
 462.00  8.0958E+002
 462.50  8.1223E+002
 463.00  8.0973E+002
 463.50  8.0292E+002
 464.00  7.9777E+002
 464.50  7.9991E+002
 465.00  8.0702E+002
 465.50  8.1576E+002
 466.00  8.2349E+002
 466.50  8.2918E+002
 467.00  8.3143E+002
 467.50  8.3006E+002
 468.00  8.2983E+002
 468.50  8.3367E+002
 469.00  8.3955E+002
 469.50  8.4730E+002
 470.00  8.6074E+002
 470.50  8.7491E+002
 471.00  8.8537E+002
 471.50  8.9537E+002
 472.00  9.1240E+002
 472.50  9.3919E+002
 473.00  9.7228E+002
 473.50  1.0097E+003
 474.00  1.0454E+003
 474.50  1.0750E+003
 475.00  1.0986E+003
 475.50  1.1125E+003
 476.00  1.1218E+003
 476.50  1.1227E+003
 477.00  1.1139E+003
 477.50  1.0924E+003
 478.00  1.0587E+003
 478.50  1.0174E+003
 479.00  9.7827E+002
 479.50  9.4067E+002
 480.00  9.1554E+002
 480.50  9.0638E+002
 481.00  8.9786E+002
 481.50  8.8699E+002
 482.00  8.7878E+002
 482.50  8.7083E+002
 483.00  8.6120E+002
 483.50  8.5551E+002
 484.00  8.5798E+002
 484.50  8.5915E+002
 485.00  8.4922E+002
 485.50  8.3853E+002
 486.00  8.2766E+002
 486.50  8.1760E+002
 487.00  8.1185E+002
 487.50  8.0533E+002
 488.00  8.0956E+002
 488.50  8.2169E+002
 489.00  8.2359E+002
 489.50  8.2155E+002
 490.00  8.2421E+002
 490.50  8.2305E+002
 491.00  8.2505E+002
 491.50  8.4035E+002
 492.00  8.5869E+002
 492.50  8.7003E+002
 493.00  8.7697E+002
 493.50  8.8132E+002
 494.00  8.8148E+002
 494.50  8.8195E+002
 495.00  8.8606E+002
 495.50  8.8256E+002
 496.00  8.6886E+002
 496.50  8.5836E+002
 497.00  8.5264E+002
 497.50  8.4743E+002
 498.00  8.5101E+002
 498.50  8.5987E+002
 499.00  8.6134E+002
 499.50  8.5796E+002
 500.00  8.5809E+002
 500.50  8.5946E+002
 501.00  8.6375E+002
 501.50  8.7437E+002
 502.00  8.8645E+002
 502.50  8.9360E+002
 503.00  8.9595E+002
 503.50  8.9514E+002
 504.00  8.8845E+002
 504.50  8.7629E+002
 505.00  8.7107E+002
 505.50  8.6839E+002
 506.00  8.6634E+002
 506.50  8.6619E+002
 507.00  8.7062E+002
 507.50  8.7107E+002
 508.00  8.7347E+002
 508.50  8.8391E+002
 509.00  8.9272E+002
 509.50  8.9074E+002
 510.00  8.8414E+002
 510.50  8.6995E+002
 511.00  8.5090E+002
 511.50  8.3993E+002
 512.00  8.3581E+002
 512.50  8.3244E+002
 513.00  8.3732E+002
 513.50  8.4780E+002
 514.00  8.5276E+002
 514.50  8.6010E+002
 515.00  8.6283E+002
 515.50  8.5333E+002
 516.00  8.4108E+002
 516.50  8.2801E+002
 517.00  8.1255E+002
 517.50  8.0488E+002
 518.00  8.0544E+002
 518.50  8.0560E+002
 519.00  8.0830E+002
 519.50  8.1398E+002
 520.00  8.1162E+002
 520.50  8.0550E+002
 521.00  8.0637E+002
 521.50  8.0608E+002
 522.00  8.0431E+002
 522.50  8.1165E+002
 523.00  8.2161E+002
 523.50  8.2927E+002
 524.00  8.3147E+002
 524.50  8.3487E+002
 525.00  8.4152E+002
 525.50  8.4896E+002
 526.00  8.6122E+002
 526.50  8.8151E+002
 527.00  8.9735E+002
 527.50  8.9886E+002
 528.00  8.9045E+002
 528.50  8.7928E+002
 529.00  8.6556E+002
 529.50  8.5463E+002
 530.00  8.4715E+002
 530.50  8.4036E+002
 531.00  8.3499E+002
 531.50  8.2727E+002
 532.00  8.2205E+002
 532.50  8.2318E+002
 533.00  8.2742E+002
 533.50  8.3186E+002
 534.00  8.3482E+002
 534.50  8.3895E+002
 535.00  8.4840E+002
 535.50  8.5719E+002
 536.00  8.6585E+002
 536.50  8.6683E+002
 537.00  8.5303E+002
 537.50  8.3773E+002
 538.00  8.2367E+002
 538.50  8.1580E+002
 539.00  8.2191E+002
 539.50  8.3682E+002
 540.00  8.5095E+002
 540.50  8.5932E+002
 541.00  8.5995E+002
 541.50  8.5861E+002
 542.00  8.4814E+002
 542.50  8.2829E+002
 543.00  8.2027E+002
 543.50  8.1695E+002
 544.00  8.1220E+002
 544.50  8.2098E+002
 545.00  8.3359E+002
 545.50  8.3983E+002
 546.00  8.4755E+002
 546.50  8.5162E+002
 547.00  8.4619E+002
 547.50  8.3991E+002
 548.00  8.4056E+002
 548.50  8.4118E+002
 549.00  8.4101E+002
 549.50  8.4442E+002
 550.00  8.4868E+002
 550.50  8.4841E+002
 551.00  8.4483E+002
 551.50  8.4523E+002
 552.00  8.5036E+002
 552.50  8.5133E+002
 553.00  8.4746E+002
 553.50  8.4374E+002
 554.00  8.3130E+002
 554.50  8.1424E+002
 555.00  8.0511E+002
 555.50  8.0462E+002
 556.00  8.0704E+002
 556.50  8.1483E+002
 557.00  8.2211E+002
 557.50  8.2394E+002
 558.00  8.2570E+002
 558.50  8.3184E+002
 559.00  8.4275E+002
 559.50  8.5365E+002
 560.00  8.6148E+002
 560.50  8.6585E+002
 561.00  8.7028E+002
 561.50  8.7322E+002
 562.00  8.7507E+002
 562.50  8.7330E+002
 563.00  8.7037E+002
 563.50  8.6923E+002
 564.00  8.7310E+002
 564.50  8.8129E+002
 565.00  8.9156E+002
 565.50  8.9623E+002
 566.00  8.9113E+002
 566.50  8.7761E+002
 567.00  8.6375E+002
 567.50  8.4767E+002
 568.00  8.3530E+002
 568.50  8.2980E+002
 569.00  8.3317E+002
 569.50  8.4014E+002
 570.00  8.4458E+002
 570.50  8.4601E+002
 571.00  8.4447E+002
 571.50  8.3524E+002
 572.00  8.2787E+002
 572.50  8.3130E+002
 573.00  8.3272E+002
 573.50  8.2969E+002
 574.00  8.2944E+002
 574.50  8.2268E+002
 575.00  8.1282E+002
 575.50  8.0764E+002
 576.00  8.0513E+002
 576.50  8.0607E+002
 577.00  8.1339E+002
 577.50  8.2052E+002
 578.00  8.2348E+002
 578.50  8.2300E+002
 579.00  8.2227E+002
 579.50  8.1459E+002
 580.00  8.0214E+002
 580.50  7.9832E+002
 581.00  8.0175E+002
 581.50  8.0890E+002
 582.00  8.1979E+002
 582.50  8.2763E+002
 583.00  8.3220E+002
 583.50  8.3815E+002
 584.00  8.4386E+002
 584.50  8.5264E+002
 585.00  8.6175E+002
 585.50  8.6170E+002
 586.00  8.5380E+002
 586.50  8.4639E+002
 587.00  8.4279E+002
 587.50  8.4282E+002
 588.00  8.4613E+002
 588.50  8.4679E+002
 589.00  8.4772E+002
 589.50  8.4630E+002
 590.00  8.4437E+002
 590.50  8.4349E+002
 591.00  8.4186E+002
 591.50  8.3781E+002
 592.00  8.3994E+002
 592.50  8.4606E+002
 593.00  8.4879E+002
 593.50  8.4978E+002
 594.00  8.4744E+002
 594.50  8.3886E+002
 595.00  8.2882E+002
 595.50  8.1856E+002
 596.00  8.1176E+002
 596.50  8.0886E+002
 597.00  8.0613E+002
 597.50  8.0361E+002
 598.00  8.0464E+002
 598.50  8.0059E+002
 599.00  7.9801E+002
 599.50  8.0318E+002
 600.00  8.1354E+002
 600.50  8.2447E+002
 601.00  8.3136E+002
 601.50  8.3527E+002
 602.00  8.3333E+002
 602.50  8.2664E+002
 603.00  8.2674E+002
 603.50  8.1950E+002
 604.00  8.1130E+002
 604.50  8.0880E+002
 605.00  8.1033E+002
 605.50  8.1801E+002
 606.00  8.3024E+002
 606.50  8.4175E+002
 607.00  8.4967E+002
 607.50  8.5451E+002
 608.00  8.5790E+002
 608.50  8.6086E+002
 609.00  8.6168E+002
 609.50  8.5512E+002
 610.00  8.4032E+002
 610.50  8.2624E+002
 611.00  8.1872E+002
 611.50  8.2211E+002
 612.00  8.3188E+002
 612.50  8.4238E+002
 613.00  8.4759E+002
 613.50  8.4855E+002
 614.00  8.4388E+002
 614.50  8.4307E+002
 615.00  8.4468E+002
 615.50  8.4414E+002
 616.00  8.4629E+002
 616.50  8.4944E+002
 617.00  8.4746E+002
 617.50  8.4510E+002
 618.00  8.4334E+002
 618.50  8.3923E+002
 619.00  8.3780E+002
 619.50  8.4250E+002
 620.00  8.5166E+002
 620.50  8.6196E+002
 621.00  8.6281E+002
 621.50  8.5489E+002
 622.00  8.4400E+002
 622.50  8.3110E+002
 623.00  8.2713E+002
 623.50  8.3000E+002
 624.00  8.2922E+002
 624.50  8.3606E+002
 625.00  8.4096E+002
 625.50  8.3393E+002
 626.00  8.3196E+002
 626.50  8.2412E+002
 627.00  8.0720E+002
 627.50  7.9537E+002
 628.00  7.9154E+002
 628.50  8.0205E+002
 629.00  8.1824E+002
 629.50  8.2762E+002
 630.00  8.4450E+002
 630.50  8.5988E+002
 631.00  8.6301E+002
 631.50  8.6531E+002
 632.00  8.6597E+002
 632.50  8.5854E+002
 633.00  8.4552E+002
 633.50  8.3980E+002
 634.00  8.4318E+002
 634.50  8.4255E+002
 635.00  8.4433E+002
 635.50  8.5608E+002
 636.00  8.6584E+002
 636.50  8.6780E+002
 637.00  8.6692E+002
 637.50  8.6358E+002
 638.00  8.5549E+002
 638.50  8.6049E+002
 639.00  8.6594E+002
 639.50  8.6670E+002
 640.00  8.6290E+002
 640.50  8.4517E+002
 641.00  8.2376E+002
