" File: Users\LabUser\Documents\MonochromatorCal
"  SCOPE->  Wave:693.48nm  Pix:1050  Val:826.600  Time: 10ms  Avg:1  Sm:1  Sg:0  Tc:off  SNAP  Xt:3  Ch:1  Xtrig  
 191.00  8.4823E+002
 191.50  8.9513E+002
 192.00  8.9700E+002
 192.50  8.6258E+002
 193.00  8.7726E+002
 193.50  8.7602E+002
 194.00  8.7646E+002
 194.50  8.7105E+002
 195.00  8.5017E+002
 195.50  8.1900E+002
 196.00  8.0246E+002
 196.50  8.0576E+002
 197.00  8.0836E+002
 197.50  8.0815E+002
 198.00  8.1483E+002
 198.50  8.0639E+002
 199.00  8.0933E+002
 199.50  8.1401E+002
 200.00  8.3644E+002
 200.50  8.5192E+002
 201.00  8.2985E+002
 201.50  8.0475E+002
 202.00  7.9962E+002
 202.50  7.9649E+002
 203.00  7.9214E+002
 203.50  7.9137E+002
 204.00  7.9430E+002
 204.50  7.9869E+002
 205.00  8.0251E+002
 205.50  8.0630E+002
 206.00  8.1027E+002
 206.50  8.1172E+002
 207.00  8.1318E+002
 207.50  8.2218E+002
 208.00  8.3191E+002
 208.50  8.3928E+002
 209.00  8.5115E+002
 209.50  8.5982E+002
 210.00  8.6400E+002
 210.50  8.6669E+002
 211.00  8.6856E+002
 211.50  8.6525E+002
 212.00  8.5999E+002
 212.50  8.5889E+002
 213.00  8.5821E+002
 213.50  8.5583E+002
 214.00  8.5897E+002
 214.50  8.6760E+002
 215.00  8.7028E+002
 215.50  8.6502E+002
 216.00  8.6125E+002
 216.50  8.5696E+002
 217.00  8.5166E+002
 217.50  8.4605E+002
 218.00  8.4488E+002
 218.50  8.4948E+002
 219.00  8.5526E+002
 219.50  8.6273E+002
 220.00  8.7344E+002
 220.50  8.8365E+002
 221.00  8.8917E+002
 221.50  8.9106E+002
 222.00  8.9164E+002
 222.50  8.8756E+002
 223.00  8.7501E+002
 223.50  8.5941E+002
 224.00  8.5016E+002
 224.50  8.3866E+002
 225.00  8.2253E+002
 225.50  8.1044E+002
 226.00  8.0483E+002
 226.50  8.0006E+002
 227.00  8.0126E+002
 227.50  8.1014E+002
 228.00  8.2262E+002
 228.50  8.3148E+002
 229.00  8.3623E+002
 229.50  8.4027E+002
 230.00  8.4280E+002
 230.50  8.4342E+002
 231.00  8.4458E+002
 231.50  8.4670E+002
 232.00  8.4653E+002
 232.50  8.4054E+002
 233.00  8.2974E+002
 233.50  8.1630E+002
 234.00  8.0861E+002
 234.50  7.9987E+002
 235.00  7.9524E+002
 235.50  7.9587E+002
 236.00  8.0214E+002
 236.50  8.1174E+002
 237.00  8.2089E+002
 237.50  8.2912E+002
 238.00  8.3566E+002
 238.50  8.3966E+002
 239.00  8.4088E+002
 239.50  8.4121E+002
 240.00  8.4481E+002
 240.50  8.4867E+002
 241.00  8.5283E+002
 241.50  8.5375E+002
 242.00  8.5148E+002
 242.50  8.4649E+002
 243.00  8.3642E+002
 243.50  8.2654E+002
 244.00  8.2491E+002
 244.50  8.3225E+002
 245.00  8.4676E+002
 245.50  8.6329E+002
 246.00  8.7448E+002
 246.50  8.8053E+002
 247.00  8.8296E+002
 247.50  8.8114E+002
 248.00  8.7631E+002
 248.50  8.7345E+002
 249.00  8.7108E+002
 249.50  8.6404E+002
 250.00  8.5932E+002
 250.50  8.6105E+002
 251.00  8.6410E+002
 251.50  8.6493E+002
 252.00  8.6704E+002
 252.50  8.6487E+002
 253.00  8.5534E+002
 253.50  8.4732E+002
 254.00  8.4163E+002
 254.50  8.3694E+002
 255.00  8.3492E+002
 255.50  8.3445E+002
 256.00  8.3666E+002
 256.50  8.4210E+002
 257.00  8.5006E+002
 257.50  8.5314E+002
 258.00  8.4787E+002
 258.50  8.3889E+002
 259.00  8.2991E+002
 259.50  8.2140E+002
 260.00  8.1778E+002
 260.50  8.2275E+002
 261.00  8.2738E+002
 261.50  8.2368E+002
 262.00  8.1843E+002
 262.50  8.1678E+002
 263.00  8.1839E+002
 263.50  8.2314E+002
 264.00  8.3156E+002
 264.50  8.4017E+002
 265.00  8.4369E+002
 265.50  8.3984E+002
 266.00  8.3541E+002
 266.50  8.3335E+002
 267.00  8.2560E+002
 267.50  8.1407E+002
 268.00  8.0311E+002
 268.50  7.9375E+002
 269.00  7.8963E+002
 269.50  7.9686E+002
 270.00  8.1303E+002
 270.50  8.3135E+002
 271.00  8.4590E+002
 271.50  8.5202E+002
 272.00  8.5069E+002
 272.50  8.4437E+002
 273.00  8.3417E+002
 273.50  8.2369E+002
 274.00  8.2141E+002
 274.50  8.2350E+002
 275.00  8.2465E+002
 275.50  8.3002E+002
 276.00  8.4524E+002
 276.50  8.6293E+002
 277.00  8.7594E+002
 277.50  8.8398E+002
 278.00  8.8841E+002
 278.50  8.8489E+002
 279.00  8.6896E+002
 279.50  8.4973E+002
 280.00  8.3454E+002
 280.50  8.2543E+002
 281.00  8.2313E+002
 281.50  8.2941E+002
 282.00  8.4111E+002
 282.50  8.5098E+002
 283.00  8.5128E+002
 283.50  8.4446E+002
 284.00  8.4065E+002
 284.50  8.4146E+002
 285.00  8.4275E+002
 285.50  8.4590E+002
 286.00  8.5175E+002
 286.50  8.5332E+002
 287.00  8.4660E+002
 287.50  8.3772E+002
 288.00  8.3289E+002
 288.50  8.3560E+002
 289.00  8.3164E+002
 289.50  8.2656E+002
 290.00  8.2540E+002
 290.50  8.1999E+002
 291.00  8.1123E+002
 291.50  8.1150E+002
 292.00  8.1593E+002
 292.50  8.2276E+002
 293.00  8.3712E+002
 293.50  8.5084E+002
 294.00  8.6047E+002
 294.50  8.6589E+002
 295.00  8.6854E+002
 295.50  8.6946E+002
 296.00  8.6875E+002
 296.50  8.6186E+002
 297.00  8.4978E+002
 297.50  8.3701E+002
 298.00  8.2799E+002
 298.50  8.2636E+002
 299.00  8.3375E+002
 299.50  8.4890E+002
 300.00  8.6643E+002
 300.50  8.8046E+002
 301.00  8.8763E+002
 301.50  8.8978E+002
 302.00  8.8681E+002
 302.50  8.7742E+002
 303.00  8.7009E+002
 303.50  8.6922E+002
 304.00  8.6615E+002
 304.50  8.5854E+002
 305.00  8.5387E+002
 305.50  8.4622E+002
 306.00  8.2910E+002
 306.50  8.2287E+002
 307.00  8.3030E+002
 307.50  8.3900E+002
 308.00  8.4141E+002
 308.50  8.4794E+002
 309.00  8.4761E+002
 309.50  8.4112E+002
 310.00  8.4060E+002
 310.50  8.4715E+002
 311.00  8.5095E+002
 311.50  8.5203E+002
 312.00  8.5332E+002
 312.50  8.4749E+002
 313.00  8.3703E+002
 313.50  8.2853E+002
 314.00  8.2508E+002
 314.50  8.2266E+002
 315.00  8.2350E+002
 315.50  8.3283E+002
 316.00  8.4609E+002
 316.50  8.5498E+002
 317.00  8.5652E+002
 317.50  8.5340E+002
 318.00  8.4566E+002
 318.50  8.3093E+002
 319.00  8.1377E+002
 319.50  8.0192E+002
 320.00  7.9955E+002
 320.50  7.9952E+002
 321.00  8.0145E+002
 321.50  8.0364E+002
 322.00  8.0500E+002
 322.50  8.0529E+002
 323.00  8.0720E+002
 323.50  8.1222E+002
 324.00  8.2100E+002
 324.50  8.3041E+002
 325.00  8.3605E+002
 325.50  8.3243E+002
 326.00  8.2768E+002
 326.50  8.2218E+002
 327.00  8.1660E+002
 327.50  8.1680E+002
 328.00  8.2580E+002
 328.50  8.3521E+002
 329.00  8.4519E+002
 329.50  8.5243E+002
 330.00  8.5625E+002
 330.50  8.5961E+002
 331.00  8.6000E+002
 331.50  8.5915E+002
 332.00  8.6431E+002
 332.50  8.6459E+002
 333.00  8.5789E+002
 333.50  8.4812E+002
 334.00  8.3851E+002
 334.50  8.2699E+002
 335.00  8.2206E+002
 335.50  8.2551E+002
 336.00  8.2872E+002
 336.50  8.2764E+002
 337.00  8.2839E+002
 337.50  8.3139E+002
 338.00  8.3021E+002
 338.50  8.2954E+002
 339.00  8.3611E+002
 339.50  8.4405E+002
 340.00  8.4885E+002
 340.50  8.5694E+002
 341.00  8.6609E+002
 341.50  8.6972E+002
 342.00  8.7235E+002
 342.50  8.7778E+002
 343.00  8.7868E+002
 343.50  8.7197E+002
 344.00  8.6574E+002
 344.50  8.6382E+002
 345.00  8.5972E+002
 345.50  8.5217E+002
 346.00  8.5018E+002
 346.50  8.5393E+002
 347.00  8.5668E+002
 347.50  8.5850E+002
 348.00  8.6347E+002
 348.50  8.6741E+002
 349.00  8.6586E+002
 349.50  8.5812E+002
 350.00  8.4562E+002
 350.50  8.3214E+002
 351.00  8.1959E+002
 351.50  8.0917E+002
 352.00  8.0516E+002
 352.50  8.0497E+002
 353.00  8.0235E+002
 353.50  8.0115E+002
 354.00  8.0633E+002
 354.50  8.0927E+002
 355.00  8.1038E+002
 355.50  8.1817E+002
 356.00  8.2580E+002
 356.50  8.2437E+002
 357.00  8.1672E+002
 357.50  8.0948E+002
 358.00  8.0628E+002
 358.50  8.0279E+002
 359.00  8.0568E+002
 359.50  8.1871E+002
 360.00  8.3268E+002
 360.50  8.3287E+002
 361.00  8.3082E+002
 361.50  8.3252E+002
 362.00  8.3375E+002
 362.50  8.3763E+002
 363.00  8.4781E+002
 363.50  8.5929E+002
 364.00  8.6159E+002
 364.50  8.5445E+002
 365.00  8.4603E+002
 365.50  8.4689E+002
 366.00  8.5346E+002
 366.50  8.5710E+002
 367.00  8.5849E+002
 367.50  8.5643E+002
 368.00  8.4951E+002
 368.50  8.4035E+002
 369.00  8.3968E+002
 369.50  8.4598E+002
 370.00  8.5025E+002
 370.50  8.5148E+002
 371.00  8.5366E+002
 371.50  8.5556E+002
 372.00  8.5400E+002
 372.50  8.4680E+002
 373.00  8.3908E+002
 373.50  8.3420E+002
 374.00  8.3396E+002
 374.50  8.3225E+002
 375.00  8.3488E+002
 375.50  8.3920E+002
 376.00  8.3934E+002
 376.50  8.3580E+002
 377.00  8.3607E+002
 377.50  8.3993E+002
 378.00  8.4770E+002
 378.50  8.6417E+002
 379.00  8.7340E+002
 379.50  8.7332E+002
 380.00  8.6923E+002
 380.50  8.6093E+002
 381.00  8.4879E+002
 381.50  8.3990E+002
 382.00  8.3605E+002
 382.50  8.3770E+002
 383.00  8.3396E+002
 383.50  8.2025E+002
 384.00  8.1039E+002
 384.50  8.1014E+002
 385.00  8.0871E+002
 385.50  8.1179E+002
 386.00  8.2432E+002
 386.50  8.3424E+002
 387.00  8.3503E+002
 387.50  8.3556E+002
 388.00  8.3451E+002
 388.50  8.2725E+002
 389.00  8.2277E+002
 389.50  8.2514E+002
 390.00  8.2902E+002
 390.50  8.2843E+002
 391.00  8.1993E+002
 391.50  8.1194E+002
 392.00  8.1383E+002
 392.50  8.1976E+002
 393.00  8.2788E+002
 393.50  8.4663E+002
 394.00  8.6177E+002
 394.50  8.6089E+002
 395.00  8.5705E+002
 395.50  8.5910E+002
 396.00  8.5538E+002
 396.50  8.5113E+002
 397.00  8.5531E+002
 397.50  8.5215E+002
 398.00  8.4404E+002
 398.50  8.4538E+002
 399.00  8.5399E+002
 399.50  8.5984E+002
 400.00  8.7077E+002
 400.50  8.8217E+002
 401.00  8.8232E+002
 401.50  8.6997E+002
 402.00  8.5653E+002
 402.50  8.4645E+002
 403.00  8.3730E+002
 403.50  8.3259E+002
 404.00  8.2899E+002
 404.50  8.2230E+002
 405.00  8.1813E+002
 405.50  8.1753E+002
 406.00  8.1972E+002
 406.50  8.2627E+002
 407.00  8.2855E+002
 407.50  8.2281E+002
 408.00  8.1778E+002
 408.50  8.1499E+002
 409.00  8.1140E+002
 409.50  8.0734E+002
 410.00  8.0200E+002
 410.50  7.9498E+002
 411.00  7.8735E+002
 411.50  7.8339E+002
 412.00  7.8707E+002
 412.50  7.9689E+002
 413.00  8.0673E+002
 413.50  8.1558E+002
 414.00  8.2730E+002
 414.50  8.3849E+002
 415.00  8.3890E+002
 415.50  8.2939E+002
 416.00  8.1740E+002
 416.50  8.0977E+002
 417.00  8.0610E+002
 417.50  8.0631E+002
 418.00  8.1476E+002
 418.50  8.2397E+002
 419.00  8.2531E+002
 419.50  8.2515E+002
 420.00  8.3223E+002
 420.50  8.4011E+002
 421.00  8.4405E+002
 421.50  8.4761E+002
 422.00  8.4752E+002
 422.50  8.4181E+002
 423.00  8.3707E+002
 423.50  8.4280E+002
 424.00  8.4414E+002
 424.50  8.4781E+002
 425.00  8.5965E+002
 425.50  8.7130E+002
 426.00  8.8212E+002
 426.50  8.9239E+002
 427.00  8.9796E+002
 427.50  8.9655E+002
 428.00  8.8655E+002
 428.50  8.6664E+002
 429.00  8.4608E+002
 429.50  8.2769E+002
 430.00  8.2086E+002
 430.50  8.2572E+002
 431.00  8.2556E+002
 431.50  8.2440E+002
 432.00  8.2713E+002
 432.50  8.2242E+002
 433.00  8.1326E+002
 433.50  8.1765E+002
 434.00  8.2890E+002
 434.50  8.3717E+002
 435.00  8.3885E+002
 435.50  8.3595E+002
 436.00  8.3332E+002
 436.50  8.3349E+002
 437.00  8.3565E+002
 437.50  8.4315E+002
 438.00  8.5081E+002
 438.50  8.4794E+002
 439.00  8.3693E+002
 439.50  8.3026E+002
 440.00  8.3068E+002
 440.50  8.3056E+002
 441.00  8.3093E+002
 441.50  8.3150E+002
 442.00  8.2333E+002
 442.50  8.1115E+002
 443.00  8.1331E+002
 443.50  8.1973E+002
 444.00  8.2310E+002
 444.50  8.2690E+002
 445.00  8.2568E+002
 445.50  8.2560E+002
 446.00  8.3726E+002
 446.50  8.4548E+002
 447.00  8.4245E+002
 447.50  8.4629E+002
 448.00  8.4797E+002
 448.50  8.3961E+002
 449.00  8.3339E+002
 449.50  8.3503E+002
 450.00  8.3810E+002
 450.50  8.3795E+002
 451.00  8.3780E+002
 451.50  8.4192E+002
 452.00  8.4223E+002
 452.50  8.2952E+002
 453.00  8.1463E+002
 453.50  8.0748E+002
 454.00  8.0761E+002
 454.50  8.1328E+002
 455.00  8.2376E+002
 455.50  8.3359E+002
 456.00  8.3762E+002
 456.50  8.3592E+002
 457.00  8.3297E+002
 457.50  8.3161E+002
 458.00  8.3589E+002
 458.50  8.4432E+002
 459.00  8.5545E+002
 459.50  8.6916E+002
 460.00  8.7775E+002
 460.50  8.8049E+002
 461.00  8.8021E+002
 461.50  8.7294E+002
 462.00  8.6140E+002
 462.50  8.5408E+002
 463.00  8.4387E+002
 463.50  8.3285E+002
 464.00  8.2837E+002
 464.50  8.2910E+002
 465.00  8.3058E+002
 465.50  8.3667E+002
 466.00  8.4449E+002
 466.50  8.4482E+002
 467.00  8.3771E+002
 467.50  8.2719E+002
 468.00  8.1279E+002
 468.50  8.0217E+002
 469.00  8.0292E+002
 469.50  8.0467E+002
 470.00  8.0661E+002
 470.50  8.1600E+002
 471.00  8.2316E+002
 471.50  8.2345E+002
 472.00  8.2453E+002
 472.50  8.2445E+002
 473.00  8.2202E+002
 473.50  8.2237E+002
 474.00  8.2120E+002
 474.50  8.2217E+002
 475.00  8.2618E+002
 475.50  8.2489E+002
 476.00  8.1703E+002
 476.50  8.1641E+002
 477.00  8.1786E+002
 477.50  8.2267E+002
 478.00  8.3276E+002
 478.50  8.4291E+002
 479.00  8.5319E+002
 479.50  8.6109E+002
 480.00  8.5956E+002
 480.50  8.5419E+002
 481.00  8.5000E+002
 481.50  8.4244E+002
 482.00  8.3212E+002
 482.50  8.2363E+002
 483.00  8.2323E+002
 483.50  8.3232E+002
 484.00  8.4550E+002
 484.50  8.5911E+002
 485.00  8.7781E+002
 485.50  8.8589E+002
 486.00  8.8117E+002
 486.50  8.7144E+002
 487.00  8.5618E+002
 487.50  8.4268E+002
 488.00  8.3630E+002
 488.50  8.3549E+002
 489.00  8.4268E+002
 489.50  8.4847E+002
 490.00  8.4478E+002
 490.50  8.3733E+002
 491.00  8.2910E+002
 491.50  8.2577E+002
 492.00  8.3036E+002
 492.50  8.3629E+002
 493.00  8.3993E+002
 493.50  8.4206E+002
 494.00  8.4275E+002
 494.50  8.4628E+002
 495.00  8.5162E+002
 495.50  8.5728E+002
 496.00  8.6147E+002
 496.50  8.5845E+002
 497.00  8.4568E+002
 497.50  8.2712E+002
 498.00  8.1023E+002
 498.50  7.9900E+002
 499.00  7.9564E+002
 499.50  7.9884E+002
 500.00  8.0885E+002
 500.50  8.1416E+002
 501.00  8.0751E+002
 501.50  8.0380E+002
 502.00  8.0586E+002
 502.50  8.0706E+002
 503.00  8.1743E+002
 503.50  8.3069E+002
 504.00  8.3370E+002
 504.50  8.3678E+002
 505.00  8.3674E+002
 505.50  8.3175E+002
 506.00  8.3371E+002
 506.50  8.3709E+002
 507.00  8.3628E+002
 507.50  8.3840E+002
 508.00  8.4136E+002
 508.50  8.4205E+002
 509.00  8.4433E+002
 509.50  8.4691E+002
 510.00  8.4910E+002
 510.50  8.4863E+002
 511.00  8.4175E+002
 511.50  8.3751E+002
 512.00  8.4322E+002
 512.50  8.5159E+002
 513.00  8.5771E+002
 513.50  8.6646E+002
 514.00  8.7185E+002
 514.50  8.6984E+002
 515.00  8.6682E+002
 515.50  8.7087E+002
 516.00  8.7407E+002
 516.50  8.7470E+002
 517.00  8.7360E+002
 517.50  8.6934E+002
 518.00  8.6416E+002
 518.50  8.5789E+002
 519.00  8.5319E+002
 519.50  8.5409E+002
 520.00  8.6006E+002
 520.50  8.6925E+002
 521.00  8.7353E+002
 521.50  8.6296E+002
 522.00  8.5305E+002
 522.50  8.4539E+002
 523.00  8.3727E+002
 523.50  8.3768E+002
 524.00  8.4299E+002
 524.50  8.3902E+002
 525.00  8.2525E+002
 525.50  8.0877E+002
 526.00  7.9709E+002
 526.50  7.9426E+002
 527.00  7.9759E+002
 527.50  8.1217E+002
 528.00  8.3761E+002
 528.50  8.5401E+002
 529.00  8.6127E+002
 529.50  8.6815E+002
 530.00  8.7174E+002
 530.50  8.6409E+002
 531.00  8.4926E+002
 531.50  8.4299E+002
 532.00  8.4820E+002
 532.50  8.5474E+002
 533.00  8.6359E+002
 533.50  8.7419E+002
 534.00  8.7475E+002
 534.50  8.6686E+002
 535.00  8.5818E+002
 535.50  8.5112E+002
 536.00  8.4940E+002
 536.50  8.4946E+002
 537.00  8.5092E+002
 537.50  8.5859E+002
 538.00  8.6888E+002
 538.50  8.6902E+002
 539.00  8.6261E+002
 539.50  8.5167E+002
 540.00  8.4073E+002
 540.50  8.3551E+002
 541.00  8.4050E+002
 541.50  8.5296E+002
 542.00  8.5880E+002
 542.50  8.5706E+002
 543.00  8.5745E+002
 543.50  8.5378E+002
 544.00  8.4752E+002
 544.50  8.4466E+002
 545.00  8.3917E+002
 545.50  8.2965E+002
 546.00  8.1924E+002
 546.50  8.1408E+002
 547.00  8.1756E+002
 547.50  8.2721E+002
 548.00  8.4108E+002
 548.50  8.5681E+002
 549.00  8.6675E+002
 549.50  8.7833E+002
 550.00  8.8419E+002
 550.50  8.7892E+002
 551.00  8.7589E+002
 551.50  8.7831E+002
 552.00  8.7388E+002
 552.50  8.6805E+002
 553.00  8.6296E+002
 553.50  8.4731E+002
 554.00  8.2822E+002
 554.50  8.1657E+002
 555.00  8.0926E+002
 555.50  8.0962E+002
 556.00  8.1248E+002
 556.50  8.1810E+002
 557.00  8.2271E+002
 557.50  8.2543E+002
 558.00  8.3389E+002
 558.50  8.4686E+002
 559.00  8.5876E+002
 559.50  8.6871E+002
 560.00  8.7583E+002
 560.50  8.7099E+002
 561.00  8.5502E+002
 561.50  8.4196E+002
 562.00  8.3780E+002
 562.50  8.4115E+002
 563.00  8.4835E+002
 563.50  8.5254E+002
 564.00  8.5784E+002
 564.50  8.6048E+002
 565.00  8.5708E+002
 565.50  8.5506E+002
 566.00  8.5656E+002
 566.50  8.5700E+002
 567.00  8.5681E+002
 567.50  8.5524E+002
 568.00  8.5597E+002
 568.50  8.5457E+002
 569.00  8.4878E+002
 569.50  8.4751E+002
 570.00  8.5176E+002
 570.50  8.5124E+002
 571.00  8.4607E+002
 571.50  8.3740E+002
 572.00  8.2878E+002
 572.50  8.2891E+002
 573.00  8.3196E+002
 573.50  8.3084E+002
 574.00  8.3520E+002
 574.50  8.3792E+002
 575.00  8.3352E+002
 575.50  8.3176E+002
 576.00  8.3668E+002
 576.50  8.4261E+002
 577.00  8.4009E+002
 577.50  8.3743E+002
 578.00  8.3872E+002
 578.50  8.2906E+002
 579.00  8.2127E+002
 579.50  8.2232E+002
 580.00  8.1961E+002
 580.50  8.2064E+002
 581.00  8.2607E+002
 581.50  8.3414E+002
 582.00  8.4533E+002
 582.50  8.5435E+002
 583.00  8.5991E+002
 583.50  8.5802E+002
 584.00  8.5201E+002
 584.50  8.5044E+002
 585.00  8.5173E+002
 585.50  8.4826E+002
 586.00  8.4578E+002
 586.50  8.4815E+002
 587.00  8.4866E+002
 587.50  8.4835E+002
 588.00  8.5413E+002
 588.50  8.6100E+002
 589.00  8.7247E+002
 589.50  8.7980E+002
 590.00  8.8417E+002
 590.50  8.8403E+002
 591.00  8.7818E+002
 591.50  8.7414E+002
 592.00  8.7814E+002
 592.50  8.8476E+002
 593.00  8.9350E+002
 593.50  8.9402E+002
 594.00  8.8438E+002
 594.50  8.7763E+002
 595.00  8.6876E+002
 595.50  8.6187E+002
 596.00  8.5868E+002
 596.50  8.5245E+002
 597.00  8.5297E+002
 597.50  8.5440E+002
 598.00  8.5153E+002
 598.50  8.6160E+002
 599.00  8.6261E+002
 599.50  8.5481E+002
 600.00  8.4856E+002
 600.50  8.4080E+002
 601.00  8.3423E+002
 601.50  8.3414E+002
 602.00  8.3880E+002
 602.50  8.4139E+002
 603.00  8.4007E+002
 603.50  8.3446E+002
 604.00  8.2112E+002
 604.50  8.1130E+002
 605.00  8.0969E+002
 605.50  8.1127E+002
 606.00  8.2060E+002
 606.50  8.3490E+002
 607.00  8.4649E+002
 607.50  8.6026E+002
 608.00  8.6901E+002
 608.50  8.6305E+002
 609.00  8.5578E+002
 609.50  8.5194E+002
 610.00  8.4371E+002
 610.50  8.3707E+002
 611.00  8.3418E+002
 611.50  8.3161E+002
 612.00  8.3102E+002
 612.50  8.3234E+002
 613.00  8.3639E+002
 613.50  8.3870E+002
 614.00  8.3952E+002
 614.50  8.4293E+002
 615.00  8.4764E+002
 615.50  8.5229E+002
 616.00  8.5592E+002
 616.50  8.6243E+002
 617.00  8.7529E+002
 617.50  8.7914E+002
 618.00  8.7316E+002
 618.50  8.6562E+002
 619.00  8.5570E+002
 619.50  8.4895E+002
 620.00  8.4995E+002
 620.50  8.5633E+002
 621.00  8.5759E+002
 621.50  8.5492E+002
 622.00  8.5530E+002
 622.50  8.5974E+002
 623.00  8.6062E+002
 623.50  8.6315E+002
 624.00  8.6963E+002
 624.50  8.7760E+002
 625.00  8.8718E+002
 625.50  8.9816E+002
 626.00  9.0598E+002
 626.50  9.0974E+002
 627.00  9.0804E+002
 627.50  9.0400E+002
 628.00  9.0032E+002
 628.50  8.9333E+002
 629.00  8.8285E+002
 629.50  8.7057E+002
 630.00  8.5391E+002
 630.50  8.4549E+002
 631.00  8.4437E+002
 631.50  8.3915E+002
 632.00  8.3139E+002
 632.50  8.3005E+002
 633.00  8.3090E+002
 633.50  8.3760E+002
 634.00  8.5863E+002
 634.50  8.6915E+002
 635.00  8.7005E+002
 635.50  8.6472E+002
 636.00  8.5236E+002
 636.50  8.4680E+002
 637.00  8.3869E+002
 637.50  8.2400E+002
 638.00  8.2149E+002
 638.50  8.1889E+002
 639.00  8.1878E+002
 639.50  8.2325E+002
 640.00  8.2668E+002
 640.50  8.2801E+002
 641.00  8.2892E+002
